##TITLE=4 жидк кювета спектр
##$NOTE=11.03.2023 11:51:3 ^0 x10 v:1 [Без приставки]
##$ITAB=-1,-1
##FIRSTX=499.643
##DELTAX=1.92912
##NPOINTS=2333
##XUNITS=1/CM
##YUNITS=ABSORBANCE
499.643	0.645197
501.572	0.681411
503.501	0.717681
505.43	0.764784
507.36	0.818868
509.289	0.864639
511.218	0.892295
513.147	0.910101
515.076	0.935227
517.005	0.973749
518.934	1.00139
520.863	1.01141
522.792	0.977371
524.722	0.939769
526.651	0.922474
528.58	0.951701
530.509	1.02868
532.438	1.1006
534.367	1.11737
536.296	1.12215
538.225	1.1203
540.155	1.12164
542.084	1.10781
544.013	1.08955
545.942	1.06983
547.871	1.05144
549.8	1.03222
551.729	0.998919
553.658	0.962527
555.588	0.938823
557.517	0.93189
559.446	0.930854
561.375	0.922578
563.304	0.905766
565.233	0.88634
567.162	0.864539
569.091	0.836114
571.021	0.802868
572.95	0.772664
574.879	0.749745
576.808	0.73151
578.737	0.714941
580.666	0.701779
582.595	0.694766
584.524	0.691971
586.454	0.688049
588.383	0.679821
590.312	0.667774
592.241	0.652871
594.17	0.635136
596.099	0.615373
598.028	0.595486
599.957	0.57682
601.887	0.559879
603.816	0.545378
605.745	0.533771
607.674	0.52399
609.603	0.514752
611.532	0.507245
613.461	0.504007
615.39	0.504343
617.32	0.503062
619.249	0.495508
621.178	0.482082
623.107	0.465875
625.036	0.448978
626.965	0.432847
628.894	0.419044
630.823	0.407947
632.753	0.398725
634.682	0.391485
636.611	0.387677
638.54	0.387617
640.469	0.389442
642.398	0.391125
644.327	0.391703
646.256	0.390132
648.186	0.385484
650.115	0.379144
652.044	0.373533
653.973	0.367971
655.902	0.361208
657.831	0.359857
659.76	0.376902
661.689	0.417114
663.619	0.467405
665.548	0.494355
667.477	0.464905
669.406	0.404811
671.335	0.364031
673.264	0.347906
675.193	0.339515
677.122	0.327425
679.052	0.311521
680.981	0.296405
682.91	0.283662
684.839	0.272802
686.768	0.264597
688.697	0.260395
690.626	0.260226
692.555	0.263011
694.485	0.267403
696.414	0.27193
698.343	0.275172
700.272	0.276185
702.201	0.274498
704.13	0.269916
706.059	0.262703
707.988	0.25378
709.917	0.244401
711.847	0.235785
713.776	0.229233
715.705	0.226129
717.634	0.227196
719.563	0.231668
721.492	0.237585
723.421	0.243092
725.35	0.247247
727.28	0.249646
729.209	0.249847
731.138	0.247349
733.067	0.241941
734.996	0.234036
736.925	0.224891
738.854	0.216363
740.783	0.210144
742.713	0.207137
744.642	0.207517
746.571	0.211008
748.5	0.2168
750.429	0.223459
752.358	0.229379
754.287	0.233407
756.216	0.234893
758.146	0.233339
760.075	0.228505
762.004	0.221005
763.933	0.212401
765.862	0.20446
767.791	0.198451
769.72	0.195129
771.649	0.194981
773.579	0.198081
775.508	0.203741
777.437	0.21057
779.366	0.217046
781.295	0.222006
783.224	0.224569
785.153	0.223975
787.082	0.219957
789.012	0.213258
790.941	0.205422
792.87	0.197978
794.799	0.191986
796.728	0.188251
798.657	0.187504
800.586	0.190044
802.515	0.195302
804.445	0.202
806.374	0.208734
808.303	0.214297
810.232	0.217636
812.161	0.217921
814.09	0.214929
816.019	0.209259
817.948	0.202088
819.878	0.194742
821.807	0.188421
823.736	0.184119
825.665	0.182609
827.594	0.18437
829.523	0.189286
831.452	0.196355
833.381	0.203858
835.311	0.210077
837.24	0.213937
839.169	0.214993
841.098	0.213123
843.027	0.20856
844.956	0.202101
846.885	0.194962
848.814	0.188357
850.744	0.183369
852.673	0.180998
854.602	0.181911
856.531	0.185978
858.46	0.192204
860.389	0.199227
862.318	0.205782
864.247	0.210742
866.177	0.213107
868.106	0.212336
870.035	0.208635
871.964	0.202755
873.893	0.195681
875.822	0.188665
877.751	0.183262
879.68	0.18082
881.609	0.181771
883.539	0.185563
885.468	0.191291
887.397	0.198152
889.326	0.20522
891.255	0.211127
893.184	0.214466
895.113	0.214565
897.042	0.211672
898.972	0.206481
900.901	0.199805
902.83	0.192749
904.759	0.186767
906.688	0.183215
908.617	0.182795
910.546	0.185435
912.475	0.190568
914.405	0.197372
916.334	0.204741
918.263	0.211267
920.192	0.215522
922.121	0.216587
924.05	0.214411
925.979	0.209706
927.908	0.203527
929.838	0.196927
931.767	0.19093
933.696	0.186617
935.625	0.185007
937.554	0.186675
939.483	0.191444
941.412	0.198387
943.341	0.2061
945.271	0.213018
947.2	0.217734
949.129	0.219357
951.058	0.217779
952.987	0.21361
954.916	0.20778
956.845	0.201235
958.774	0.194995
960.704	0.190305
962.633	0.188409
964.562	0.189941
966.491	0.194487
968.42	0.200821
970.349	0.207626
972.278	0.213941
974.207	0.219013
976.137	0.221993
978.066	0.222109
979.995	0.219156
981.924	0.213727
983.853	0.206964
985.782	0.200227
987.711	0.194891
989.64	0.192132
991.57	0.192592
993.499	0.196146
995.428	0.202003
997.357	0.209036
999.286	0.216058
1001.22	0.221947
1003.14	0.225737
1005.07	0.226781
1007	0.22489
1008.93	0.220434
1010.86	0.214337
1012.79	0.207933
1014.72	0.202608
1016.65	0.19943
1018.58	0.198986
1020.51	0.201415
1022.44	0.206414
1024.36	0.213148
1026.29	0.220301
1028.22	0.226439
1030.15	0.230448
1032.08	0.231718
1034.01	0.230081
1035.94	0.225783
1037.87	0.21955
1039.8	0.212543
1041.73	0.206122
1043.66	0.201583
1045.58	0.199904
1047.51	0.201477
1049.44	0.205901
1051.37	0.212137
1053.3	0.219002
1055.23	0.225507
1057.16	0.230716
1059.09	0.23354
1061.02	0.23308
1062.95	0.229316
1064.88	0.223261
1066.81	0.216372
1068.73	0.209943
1070.66	0.205036
1072.59	0.202627
1074.52	0.203418
1076.45	0.207398
1078.38	0.213674
1080.31	0.220843
1082.24	0.227545
1084.17	0.232763
1086.1	0.235776
1088.03	0.236077
1089.95	0.233472
1091.88	0.228297
1093.81	0.221525
1095.74	0.214595
1097.67	0.209021
1099.6	0.20598
1101.53	0.206049
1103.46	0.209159
1105.39	0.2147
1107.32	0.221654
1109.25	0.228739
1111.18	0.234606
1113.1	0.238143
1115.03	0.238752
1116.96	0.236411
1118.89	0.23157
1120.82	0.225058
1122.75	0.218085
1124.68	0.212093
1126.61	0.208368
1128.54	0.207646
1130.47	0.209981
1132.4	0.214891
1134.32	0.221512
1136.25	0.228659
1138.18	0.234984
1140.11	0.239325
1142.04	0.241014
1143.97	0.239893
1145.9	0.236138
1147.83	0.230266
1149.76	0.223307
1151.69	0.216783
1153.62	0.212268
1155.55	0.210791
1157.47	0.212533
1159.4	0.216968
1161.33	0.223195
1163.26	0.230138
1165.19	0.236578
1167.12	0.241289
1169.05	0.243352
1170.98	0.242448
1172.91	0.238867
1174.84	0.233311
1176.77	0.226747
1178.69	0.220349
1180.62	0.215363
1182.55	0.212843
1184.48	0.213369
1186.41	0.21689
1188.34	0.222734
1190.27	0.229761
1192.2	0.236622
1194.13	0.242048
1196.06	0.245092
1197.99	0.245271
1199.91	0.242606
1201.84	0.237585
1203.77	0.231092
1205.7	0.22432
1207.63	0.218626
1209.56	0.215249
1211.49	0.21495
1213.42	0.217784
1215.35	0.223145
1217.28	0.229974
1219.21	0.236991
1221.14	0.242912
1223.06	0.246702
1224.99	0.247739
1226.92	0.245835
1228.85	0.241235
1230.78	0.234735
1232.71	0.2277
1234.64	0.221737
1236.57	0.218135
1238.5	0.21751
1240.43	0.219839
1242.36	0.224674
1244.28	0.231228
1246.21	0.238369
1248.14	0.244739
1250.07	0.249085
1252	0.250648
1253.93	0.249328
1255.86	0.245529
1257.79	0.23991
1259.72	0.233357
1261.65	0.22708
1263.58	0.222465
1265.51	0.22062
1267.43	0.22199
1269.36	0.226288
1271.29	0.232646
1273.22	0.239815
1275.15	0.246426
1277.08	0.251288
1279.01	0.253616
1280.94	0.253117
1282.87	0.249962
1284.8	0.244707
1286.73	0.238268
1288.65	0.231879
1290.58	0.22689
1292.51	0.224428
1294.44	0.225087
1296.37	0.22877
1298.3	0.23473
1300.23	0.241848
1302.16	0.24894
1304.09	0.254896
1306.02	0.25873
1307.95	0.259771
1309.87	0.257924
1311.8	0.253695
1313.73	0.247935
1315.66	0.241601
1317.59	0.235771
1319.52	0.231666
1321.45	0.230335
1323.38	0.232143
1325.31	0.236621
1327.24	0.24276
1329.17	0.249369
1331.1	0.255243
1333.02	0.259293
1334.95	0.260713
1336.88	0.259156
1338.81	0.254942
1340.74	0.249065
1342.67	0.242754
1344.6	0.237098
1346.53	0.233097
1348.46	0.231709
1350.39	0.233514
1352.32	0.238314
1354.24	0.245096
1356.17	0.252426
1358.1	0.259022
1360.03	0.263987
1361.96	0.266592
1363.89	0.266226
1365.82	0.262874
1367.75	0.257374
1369.68	0.251064
1371.61	0.245349
1373.54	0.241411
1375.47	0.240085
1377.39	0.241808
1379.32	0.246433
1381.25	0.253128
1383.18	0.260731
1385.11	0.268118
1387.04	0.274257
1388.97	0.278282
1390.9	0.279667
1392.83	0.278152
1394.76	0.273794
1396.69	0.267488
1398.61	0.260964
1400.54	0.255837
1402.47	0.253081
1404.4	0.253217
1406.33	0.256366
1408.26	0.26202
1410.19	0.268929
1412.12	0.275447
1414.05	0.280162
1415.98	0.282158
1417.91	0.280931
1419.83	0.276642
1421.76	0.270251
1423.69	0.262844
1425.62	0.255331
1427.55	0.248882
1429.48	0.24477
1431.41	0.243629
1433.34	0.24552
1435.27	0.250427
1437.2	0.257542
1439.13	0.264612
1441.06	0.269739
1442.98	0.27269
1444.91	0.273568
1446.84	0.271775
1448.77	0.267153
1450.7	0.260936
1452.63	0.254468
1454.56	0.248522
1456.49	0.244103
1458.42	0.242354
1460.35	0.243484
1462.28	0.247222
1464.2	0.25311
1466.13	0.259708
1468.06	0.26511
1469.99	0.268424
1471.92	0.269471
1473.85	0.267786
1475.78	0.26325
1477.71	0.256826
1479.64	0.249876
1481.57	0.243668
1483.5	0.239261
1485.43	0.237424
1487.35	0.238734
1489.28	0.243109
1491.21	0.249216
1493.14	0.255709
1495.07	0.262229
1497	0.268069
1498.93	0.271472
1500.86	0.271719
1502.79	0.269544
1504.72	0.265206
1506.65	0.258656
1508.57	0.251676
1510.5	0.246634
1512.43	0.244152
1514.36	0.244306
1516.29	0.247398
1518.22	0.253329
1520.15	0.261189
1522.08	0.26945
1524.01	0.276316
1525.94	0.28061
1527.87	0.282082
1529.8	0.28063
1531.72	0.276322
1533.65	0.270277
1535.58	0.264267
1537.51	0.259477
1539.44	0.256628
1541.37	0.256532
1543.3	0.259245
1545.23	0.263914
1547.16	0.269956
1549.09	0.276727
1551.02	0.282788
1552.94	0.286761
1554.87	0.288297
1556.8	0.287097
1558.73	0.282469
1560.66	0.275651
1562.59	0.269144
1564.52	0.263964
1566.45	0.260579
1568.38	0.259783
1570.31	0.261854
1572.24	0.266337
1574.16	0.273019
1576.09	0.281348
1578.02	0.289203
1579.95	0.294485
1581.88	0.296949
1583.81	0.297049
1585.74	0.294815
1587.67	0.290387
1589.6	0.284688
1591.53	0.27915
1593.46	0.275171
1595.39	0.273842
1597.31	0.275784
1599.24	0.280978
1601.17	0.288667
1603.1	0.297584
1605.03	0.30633
1606.96	0.313564
1608.89	0.318224
1610.82	0.319806
1612.75	0.318235
1614.68	0.313725
1616.61	0.307243
1618.53	0.300594
1620.46	0.295275
1622.39	0.292076
1624.32	0.291827
1626.25	0.294954
1628.18	0.300205
1630.11	0.305667
1632.04	0.310578
1633.97	0.314653
1635.9	0.316508
1637.83	0.314828
1639.76	0.310215
1641.68	0.303485
1643.61	0.294885
1645.54	0.285614
1647.47	0.277915
1649.4	0.273113
1651.33	0.271708
1653.26	0.273955
1655.19	0.278384
1657.12	0.282866
1659.05	0.286923
1660.98	0.290653
1662.9	0.293105
1664.83	0.29265
1666.76	0.288772
1668.69	0.282382
1670.62	0.2748
1672.55	0.267131
1674.48	0.260278
1676.41	0.255195
1678.34	0.252742
1680.27	0.253459
1682.2	0.257562
1684.12	0.264277
1686.05	0.271116
1687.98	0.275955
1689.91	0.278638
1691.84	0.279486
1693.77	0.278301
1695.7	0.274721
1697.63	0.268906
1699.56	0.26193
1701.49	0.255478
1703.42	0.250957
1705.35	0.249127
1707.27	0.250247
1709.2	0.253857
1711.13	0.258911
1713.06	0.264603
1714.99	0.270457
1716.92	0.275372
1718.85	0.277767
1720.78	0.277138
1722.71	0.273845
1724.64	0.268436
1726.57	0.262048
1728.49	0.256219
1730.42	0.252096
1732.35	0.250299
1734.28	0.25099
1736.21	0.253753
1738.14	0.258064
1740.07	0.263512
1742	0.269161
1743.93	0.273528
1745.86	0.275614
1747.79	0.275233
1749.72	0.272461
1751.64	0.267662
1753.57	0.261758
1755.5	0.255794
1757.43	0.250652
1759.36	0.247289
1761.29	0.246544
1763.22	0.248469
1765.15	0.252384
1767.08	0.25759
1769.01	0.263574
1770.94	0.269441
1772.86	0.273602
1774.79	0.274796
1776.72	0.273033
1778.65	0.269019
1780.58	0.263534
1782.51	0.257544
1784.44	0.252209
1786.37	0.2485
1788.3	0.247159
1790.23	0.24878
1792.16	0.253149
1794.08	0.258853
1796.01	0.264517
1797.94	0.269666
1799.87	0.273855
1801.8	0.276004
1803.73	0.275277
1805.66	0.271937
1807.59	0.266849
1809.52	0.260926
1811.45	0.255246
1813.38	0.251
1815.31	0.249057
1817.23	0.249774
1819.16	0.253028
1821.09	0.258258
1823.02	0.264532
1824.95	0.270652
1826.88	0.275335
1828.81	0.27768
1830.74	0.277503
1832.67	0.275006
1834.6	0.270505
1836.53	0.264731
1838.45	0.258948
1840.38	0.254471
1842.31	0.252214
1844.24	0.252566
1846.17	0.255377
1848.1	0.260087
1850.03	0.265921
1851.96	0.271885
1853.89	0.276801
1855.82	0.279687
1857.75	0.280091
1859.68	0.278058
1861.6	0.274048
1863.53	0.268819
1865.46	0.263247
1867.39	0.258297
1869.32	0.255059
1871.25	0.254354
1873.18	0.256317
1875.11	0.260554
1877.04	0.266359
1878.97	0.272642
1880.9	0.278091
1882.82	0.281638
1884.75	0.282711
1886.68	0.281218
1888.61	0.277552
1890.54	0.272504
1892.47	0.267029
1894.4	0.262065
1896.33	0.258503
1898.26	0.257099
1900.19	0.258267
1902.12	0.261877
1904.05	0.267255
1905.97	0.273339
1907.9	0.278873
1909.83	0.282747
1911.76	0.284365
1913.69	0.283636
1915.62	0.280731
1917.55	0.276091
1919.48	0.27057
1921.41	0.265294
1923.34	0.261313
1925.27	0.259406
1927.19	0.259975
1929.12	0.262961
1931.05	0.267875
1932.98	0.273871
1934.91	0.279839
1936.84	0.284618
1938.77	0.2873
1940.7	0.287416
1942.63	0.285015
1944.56	0.280639
1946.49	0.275151
1948.41	0.269561
1950.34	0.264956
1952.27	0.262315
1954.2	0.262208
1956.13	0.264662
1958.06	0.269231
1959.99	0.275066
1961.92	0.281009
1963.85	0.285882
1965.78	0.288808
1967.71	0.289361
1969.64	0.287531
1971.56	0.283648
1973.49	0.278401
1975.42	0.272832
1977.35	0.268099
1979.28	0.26512
1981.21	0.264405
1983.14	0.26609
1985.07	0.269953
1987	0.275394
1988.93	0.281472
1990.86	0.287035
1992.78	0.290962
1994.71	0.292477
1996.64	0.29133
1998.57	0.287769
2000.5	0.282483
2002.43	0.276535
2004.36	0.271171
2006.29	0.267531
2008.22	0.266354
2010.15	0.267765
2012.08	0.271325
2014.01	0.276325
2015.93	0.282012
2017.86	0.287528
2019.79	0.291832
2021.72	0.293911
2023.65	0.293222
2025.58	0.289976
2027.51	0.285017
2029.44	0.279417
2031.37	0.274178
2033.3	0.2702
2035.23	0.268239
2037.15	0.268715
2039.08	0.271546
2041.01	0.276206
2042.94	0.281887
2044.87	0.287604
2046.8	0.292265
2048.73	0.294891
2050.66	0.294952
2052.59	0.292529
2054.52	0.288173
2056.45	0.282693
2058.37	0.277088
2060.3	0.272484
2062.23	0.269895
2064.16	0.269887
2066.09	0.272401
2068.02	0.276865
2069.95	0.282422
2071.88	0.288069
2073.81	0.292758
2075.74	0.295595
2077.67	0.296095
2079.6	0.29426
2081.52	0.290461
2083.45	0.28533
2085.38	0.279749
2087.31	0.274805
2089.24	0.271557
2091.17	0.270713
2093.1	0.272417
2095.03	0.276292
2096.96	0.28159
2098.89	0.287343
2100.82	0.292501
2102.74	0.296139
2104.67	0.297636
2106.6	0.296742
2108.53	0.293566
2110.46	0.288603
2112.39	0.282773
2114.32	0.277309
2116.25	0.273418
2118.18	0.271896
2120.11	0.272939
2122.04	0.276225
2123.97	0.281112
2125.89	0.286762
2127.82	0.292177
2129.75	0.296286
2131.68	0.298218
2133.61	0.297616
2135.54	0.294725
2137.47	0.290191
2139.4	0.284848
2141.33	0.279664
2143.26	0.275691
2145.19	0.273772
2147.11	0.274224
2149.04	0.276814
2150.97	0.281026
2152.9	0.286249
2154.83	0.291674
2156.76	0.296231
2158.69	0.298863
2160.62	0.298986
2162.55	0.296674
2164.48	0.29249
2166.41	0.287251
2168.33	0.28192
2170.26	0.277518
2172.19	0.27493
2174.12	0.274691
2176.05	0.276867
2177.98	0.281042
2179.91	0.286402
2181.84	0.291926
2183.77	0.296611
2185.7	0.299634
2187.63	0.300447
2189.56	0.298861
2191.48	0.295145
2193.41	0.290041
2195.34	0.28462
2197.27	0.280027
2199.2	0.277188
2201.13	0.27659
2203.06	0.278222
2204.99	0.281688
2206.92	0.286379
2208.85	0.291549
2210.78	0.296333
2212.7	0.299822
2214.63	0.301283
2216.56	0.300386
2218.49	0.297301
2220.42	0.29264
2222.35	0.287312
2224.28	0.282343
2226.21	0.278699
2228.14	0.277132
2230.07	0.27802
2232	0.281231
2233.93	0.286104
2235.85	0.291626
2237.78	0.296737
2239.71	0.300545
2241.64	0.302399
2243.57	0.30194
2245.5	0.299242
2247.43	0.294852
2249.36	0.289652
2251.29	0.284642
2253.22	0.280788
2255.15	0.278873
2257.07	0.279289
2259	0.281927
2260.93	0.28626
2262.86	0.291547
2264.79	0.29692
2266.72	0.3014
2268.65	0.304051
2270.58	0.304325
2272.51	0.302256
2274.44	0.298331
2276.37	0.293268
2278.29	0.287959
2280.22	0.283452
2282.15	0.280739
2284.08	0.280434
2286.01	0.28259
2287.94	0.286756
2289.87	0.292149
2291.8	0.297833
2293.73	0.302864
2295.66	0.306392
2297.59	0.307783
2299.52	0.306822
2301.44	0.303883
2303.37	0.299819
2305.3	0.295592
2307.23	0.291983
2309.16	0.289643
2311.09	0.28926
2313.02	0.291372
2314.95	0.295934
2316.88	0.302207
2318.81	0.309041
2320.74	0.315202
2322.66	0.31966
2324.59	0.321834
2326.52	0.32161
2328.45	0.31925
2330.38	0.315359
2332.31	0.310809
2334.24	0.306581
2336.17	0.303603
2338.1	0.302552
2340.03	0.303732
2341.96	0.306905
2343.89	0.31107
2345.81	0.315019
2347.74	0.318324
2349.67	0.321239
2351.6	0.323937
2353.53	0.325941
2355.46	0.326151
2357.39	0.323946
2359.32	0.32002
2361.25	0.315693
2363.18	0.312044
2365.11	0.309533
2367.03	0.308142
2368.96	0.307912
2370.89	0.309008
2372.82	0.311175
2374.75	0.31348
2376.68	0.314777
2378.61	0.314349
2380.54	0.312108
2382.47	0.308352
2384.4	0.303491
2386.33	0.298021
2388.26	0.292607
2390.18	0.288076
2392.11	0.285247
2394.04	0.284685
2395.97	0.286487
2397.9	0.290236
2399.83	0.295169
2401.76	0.300378
2403.69	0.304929
2405.62	0.307935
2407.55	0.308731
2409.48	0.307143
2411.4	0.303597
2413.33	0.298918
2415.26	0.294011
2417.19	0.289712
2419.12	0.286804
2421.05	0.285927
2422.98	0.287333
2424.91	0.290713
2426.84	0.295337
2428.77	0.300377
2430.7	0.305049
2432.62	0.30855
2434.55	0.310111
2436.48	0.309319
2438.41	0.306404
2440.34	0.302105
2442.27	0.297276
2444.2	0.292691
2446.13	0.289139
2448.06	0.287425
2449.99	0.288051
2451.92	0.290903
2453.85	0.295314
2455.77	0.300406
2457.7	0.305316
2459.63	0.309181
2461.56	0.311168
2463.49	0.31075
2465.42	0.308012
2467.35	0.303664
2469.28	0.298729
2471.21	0.29418
2473.14	0.290756
2475.07	0.288967
2476.99	0.289136
2478.92	0.291344
2480.85	0.295294
2482.78	0.300261
2484.71	0.305248
2486.64	0.309294
2488.57	0.311714
2490.5	0.31216
2492.43	0.310567
2494.36	0.307155
2496.29	0.302491
2498.22	0.297498
2500.14	0.293271
2502.07	0.290748
2504	0.290428
2505.93	0.292301
2507.86	0.295955
2509.79	0.300712
2511.72	0.305707
2513.65	0.310006
2515.58	0.312819
2517.51	0.31369
2519.44	0.312522
2521.36	0.309509
2523.29	0.305152
2525.22	0.300304
2527.15	0.29604
2529.08	0.293308
2531.01	0.292583
2532.94	0.293829
2534.87	0.296736
2536.8	0.300908
2538.73	0.305796
2540.66	0.310524
2542.58	0.314025
2544.51	0.315534
2546.44	0.314945
2548.37	0.31265
2550.3	0.309091
2552.23	0.304655
2554.16	0.299978
2556.09	0.296104
2558.02	0.294116
2559.95	0.29455
2561.88	0.297161
2563.81	0.301194
2565.73	0.305801
2567.66	0.310264
2569.59	0.313931
2571.52	0.316119
2573.45	0.316224
2575.38	0.314059
2577.31	0.310112
2579.24	0.305394
2581.17	0.300965
2583.1	0.297601
2585.03	0.295797
2586.95	0.295893
2588.88	0.297995
2590.81	0.301778
2592.74	0.306486
2594.67	0.311219
2596.6	0.315213
2598.53	0.317857
2600.46	0.318619
2602.39	0.317173
2604.32	0.313728
2606.25	0.309124
2608.18	0.304465
2610.1	0.300635
2612.03	0.298168
2613.96	0.297452
2615.89	0.298808
2617.82	0.302213
2619.75	0.307026
2621.68	0.312134
2623.61	0.316449
2625.54	0.319239
2627.47	0.320104
2629.4	0.318904
2631.32	0.315897
2633.25	0.311808
2635.18	0.307529
2637.11	0.303751
2639.04	0.300954
2640.97	0.299654
2642.9	0.300388
2644.83	0.303286
2646.76	0.307745
2648.69	0.312676
2650.62	0.317082
2652.54	0.320327
2654.47	0.321969
2656.4	0.321631
2658.33	0.319246
2660.26	0.315312
2662.19	0.310732
2664.12	0.306433
2666.05	0.30319
2667.98	0.301664
2669.91	0.302287
2671.84	0.304973
2673.77	0.309051
2675.69	0.313604
2677.62	0.317874
2679.55	0.321321
2681.48	0.323453
2683.41	0.323794
2685.34	0.322117
2687.27	0.318667
2689.2	0.314171
2691.13	0.309635
2693.06	0.306036
2694.99	0.30407
2696.91	0.304067
2698.84	0.306053
2700.77	0.309749
2702.7	0.314495
2704.63	0.319305
2706.56	0.323196
2708.49	0.325539
2710.42	0.326095
2712.35	0.324845
2714.28	0.321943
2716.21	0.317852
2718.14	0.313377
2720.06	0.309491
2721.99	0.307078
2723.92	0.30673
2725.85	0.308557
2727.78	0.312098
2729.71	0.316515
2731.64	0.320958
2733.57	0.324768
2735.5	0.327411
2737.43	0.328398
2739.36	0.32744
2741.28	0.324664
2743.21	0.320626
2745.14	0.316127
2747.07	0.312067
2749	0.309316
2750.93	0.308491
2752.86	0.309708
2754.79	0.312594
2756.72	0.316591
2758.65	0.321177
2760.58	0.325721
2762.51	0.329298
2764.43	0.33095
2766.36	0.330292
2768.29	0.327725
2770.22	0.324012
2772.15	0.31981
2774.08	0.315716
2776.01	0.312511
2777.94	0.311017
2779.87	0.311654
2781.8	0.314248
2783.73	0.31823
2785.65	0.322878
2787.58	0.327378
2789.51	0.330911
2791.44	0.332879
2793.37	0.33304
2795.3	0.331455
2797.23	0.328414
2799.16	0.32446
2801.09	0.320338
2803.02	0.316834
2804.95	0.314686
2806.87	0.314529
2808.8	0.316623
2810.73	0.320509
2812.66	0.325097
2814.59	0.329326
2816.52	0.332679
2818.45	0.334974
2820.38	0.335894
2822.31	0.335057
2824.24	0.332492
2826.17	0.328777
2828.1	0.324718
2830.02	0.321097
2831.95	0.318673
2833.88	0.318107
2835.81	0.319685
2837.74	0.323173
2839.67	0.327986
2841.6	0.333376
2843.53	0.338454
2845.46	0.342232
2847.39	0.343916
2849.32	0.343251
2851.24	0.340577
2853.17	0.33659
2855.1	0.332078
2857.03	0.327814
2858.96	0.324536
2860.89	0.322938
2862.82	0.323515
2864.75	0.32624
2866.68	0.330388
2868.61	0.334832
2870.54	0.338648
2872.47	0.341421
2874.39	0.342956
2876.32	0.342932
2878.25	0.341052
2880.18	0.337492
2882.11	0.333056
2884.04	0.32884
2885.97	0.325802
2887.9	0.324551
2889.83	0.325303
2891.76	0.327912
2893.69	0.331914
2895.61	0.336615
2897.54	0.341208
2899.47	0.344954
2901.4	0.347354
2903.33	0.348171
2905.26	0.347302
2907.19	0.344801
2909.12	0.341143
2911.05	0.33735
2912.98	0.33461
2914.91	0.333662
2916.83	0.334572
2918.76	0.337012
2920.69	0.340595
2922.62	0.344867
2924.55	0.349144
2926.48	0.352572
2928.41	0.354424
2930.34	0.354351
2932.27	0.35243
2934.2	0.349086
2936.13	0.344955
2938.06	0.340703
2939.98	0.336937
2941.91	0.334237
2943.84	0.333123
2945.77	0.333865
2947.7	0.33629
2949.63	0.339847
2951.56	0.343864
2953.49	0.347699
2955.42	0.350658
2957.35	0.352011
2959.28	0.351289
2961.2	0.348614
2963.13	0.34466
2965.06	0.340297
2966.99	0.336309
2968.92	0.333371
2970.85	0.332068
2972.78	0.332787
2974.71	0.335497
2976.64	0.339642
2978.57	0.344275
2980.5	0.348409
2982.43	0.351355
2984.35	0.352815
2986.28	0.352707
2988.21	0.351004
2990.14	0.34785
2992.07	0.343817
2994	0.339866
2995.93	0.336918
2997.86	0.335453
2999.79	0.33556
3001.72	0.337261
3003.65	0.340566
3005.57	0.345112
3007.5	0.349915
3009.43	0.353724
3011.36	0.355721
3013.29	0.355814
3015.22	0.354318
3017.15	0.351572
3019.08	0.347942
3021.01	0.344032
3022.94	0.340655
3024.87	0.338562
3026.79	0.338241
3028.72	0.339884
3030.65	0.34333
3032.58	0.347931
3034.51	0.352637
3036.44	0.356407
3038.37	0.358633
3040.3	0.359178
3042.23	0.358126
3044.16	0.355658
3046.09	0.352213
3048.02	0.348552
3049.94	0.345477
3051.87	0.343468
3053.8	0.342691
3055.73	0.343283
3057.66	0.345437
3059.59	0.349137
3061.52	0.353833
3063.45	0.358466
3065.38	0.361875
3067.31	0.363303
3069.24	0.362618
3071.16	0.360139
3073.09	0.356369
3075.02	0.351973
3076.95	0.347892
3078.88	0.345204
3080.81	0.344593
3082.74	0.345931
3084.67	0.348514
3086.6	0.351775
3088.53	0.355618
3090.46	0.359943
3092.39	0.364008
3094.31	0.366582
3096.24	0.36684
3098.17	0.364979
3100.1	0.361888
3102.03	0.3584
3103.96	0.355015
3105.89	0.352126
3107.82	0.350252
3109.75	0.349925
3111.68	0.351423
3113.61	0.354614
3115.53	0.358978
3117.46	0.363746
3119.39	0.368036
3121.32	0.370966
3123.25	0.37179
3125.18	0.370206
3127.11	0.366677
3129.04	0.362348
3130.97	0.358461
3132.9	0.355742
3134.83	0.354379
3136.75	0.354445
3138.68	0.356111
3140.61	0.359348
3142.54	0.363605
3144.47	0.368004
3146.4	0.371849
3148.33	0.374793
3150.26	0.376573
3152.19	0.376867
3154.12	0.375537
3156.05	0.372869
3157.98	0.369487
3159.9	0.36616
3161.83	0.363688
3163.76	0.362753
3165.69	0.363662
3167.62	0.366246
3169.55	0.370044
3171.48	0.374519
3173.41	0.379053
3175.34	0.382841
3177.27	0.38504
3179.2	0.385136
3181.12	0.383135
3183.05	0.379486
3184.98	0.37498
3186.91	0.370703
3188.84	0.367768
3190.77	0.366877
3192.7	0.3681
3194.63	0.371055
3196.56	0.375161
3198.49	0.379679
3200.42	0.383747
3202.35	0.386661
3204.27	0.388159
3206.2	0.388302
3208.13	0.387077
3210.06	0.384395
3211.99	0.380572
3213.92	0.376564
3215.85	0.373451
3217.78	0.371798
3219.71	0.371661
3221.64	0.373045
3223.57	0.376017
3225.49	0.380274
3227.42	0.384863
3229.35	0.388591
3231.28	0.390686
3233.21	0.390943
3235.14	0.389371
3237.07	0.386059
3239	0.38145
3240.93	0.37648
3242.86	0.372274
3244.79	0.369725
3246.72	0.369311
3248.64	0.371059
3250.57	0.37454
3252.5	0.378937
3254.43	0.383295
3256.36	0.38679
3258.29	0.388855
3260.22	0.389197
3262.15	0.387838
3264.08	0.385096
3266.01	0.381433
3267.94	0.377355
3269.86	0.373524
3271.79	0.37084
3273.72	0.370114
3275.65	0.371561
3277.58	0.374697
3279.51	0.378716
3281.44	0.382829
3283.37	0.386298
3285.3	0.388491
3287.23	0.38915
3289.16	0.388457
3291.08	0.386679
3293.01	0.38394
3294.94	0.380522
3296.87	0.377221
3298.8	0.375014
3300.73	0.374341
3302.66	0.374967
3304.59	0.376648
3306.52	0.379588
3308.45	0.383945
3310.38	0.389012
3312.31	0.393251
3314.23	0.395303
3316.16	0.39488
3318.09	0.392675
3320.02	0.389621
3321.95	0.386362
3323.88	0.383268
3325.81	0.380683
3327.74	0.379066
3329.67	0.378873
3331.6	0.380341
3333.53	0.383319
3335.45	0.387282
3337.38	0.391488
3339.31	0.395144
3341.24	0.397522
3343.17	0.398049
3345.1	0.396508
3347.03	0.393256
3348.96	0.38919
3350.89	0.385312
3352.82	0.382251
3354.75	0.380275
3356.68	0.379671
3358.6	0.380833
3360.53	0.383802
3362.46	0.387875
3364.39	0.391974
3366.32	0.395437
3368.25	0.398189
3370.18	0.40013
3372.11	0.400699
3374.04	0.399349
3375.97	0.396295
3377.9	0.392524
3379.82	0.389167
3381.75	0.38701
3383.68	0.386392
3385.61	0.387256
3387.54	0.389357
3389.47	0.392584
3391.4	0.396904
3393.33	0.401738
3395.26	0.405641
3397.19	0.407141
3399.12	0.405962
3401.04	0.403076
3402.97	0.399591
3404.9	0.396
3406.83	0.392494
3408.76	0.389523
3410.69	0.387763
3412.62	0.387729
3414.55	0.389632
3416.48	0.393449
3418.41	0.398779
3420.34	0.404552
3422.27	0.409159
3424.19	0.411205
3426.12	0.410278
3428.05	0.40703
3429.98	0.402665
3431.91	0.398322
3433.84	0.394762
3435.77	0.392416
3437.7	0.391527
3439.63	0.392132
3441.56	0.394025
3443.49	0.396935
3445.41	0.400695
3447.34	0.405014
3449.27	0.409104
3451.2	0.411805
3453.13	0.412229
3455.06	0.410208
3456.99	0.406173
3458.92	0.400864
3460.85	0.395315
3462.78	0.390843
3464.71	0.388574
3466.64	0.388801
3468.56	0.390956
3470.49	0.394197
3472.42	0.397859
3474.35	0.401401
3476.28	0.40426
3478.21	0.40597
3480.14	0.406379
3482.07	0.40565
3484	0.404001
3485.93	0.401473
3487.86	0.398021
3489.78	0.393933
3491.71	0.390164
3493.64	0.388032
3495.57	0.388382
3497.5	0.391024
3499.43	0.395072
3501.36	0.399683
3503.29	0.40425
3505.22	0.408015
3507.15	0.409953
3509.08	0.409335
3511	0.406309
3512.93	0.4017
3514.86	0.396336
3516.79	0.39089
3518.72	0.386352
3520.65	0.384036
3522.58	0.384686
3524.51	0.387739
3526.44	0.391744
3528.37	0.39546
3530.3	0.398353
3532.23	0.400214
3534.15	0.400827
3536.08	0.400068
3538.01	0.397889
3539.94	0.394182
3541.87	0.389203
3543.8	0.38423
3545.73	0.381027
3547.66	0.380209
3549.59	0.380804
3551.52	0.381823
3553.45	0.38338
3555.37	0.385792
3557.3	0.388459
3559.23	0.390431
3561.16	0.391482
3563.09	0.391768
3565.02	0.390982
3566.95	0.388726
3568.88	0.385114
3570.81	0.380037
3572.74	0.373521
3574.67	0.36848
3576.6	0.371381
3578.52	0.38639
3580.45	0.408093
3582.38	0.422969
3584.31	0.420555
3586.24	0.404561
3588.17	0.388805
3590.1	0.381012
3592.03	0.378019
3593.96	0.374333
3595.89	0.368583
3597.82	0.36243
3599.74	0.356999
3601.67	0.35238
3603.6	0.349148
3605.53	0.348312
3607.46	0.349927
3609.39	0.352595
3611.32	0.354723
3613.25	0.355893
3615.18	0.356458
3617.11	0.356311
3619.04	0.354604
3620.97	0.350871
3622.89	0.345801
3624.82	0.34048
3626.75	0.335606
3628.68	0.331409
3630.61	0.32807
3632.54	0.326133
3634.47	0.326259
3636.4	0.32859
3638.33	0.332274
3640.26	0.335881
3642.19	0.338528
3644.11	0.340049
3646.04	0.340183
3647.97	0.338441
3649.9	0.335021
3651.83	0.330908
3653.76	0.326805
3655.69	0.322982
3657.62	0.319701
3659.55	0.317271
3661.48	0.316068
3663.41	0.316688
3665.33	0.319578
3667.26	0.323976
3669.19	0.327667
3671.12	0.328953
3673.05	0.328398
3674.98	0.327303
3676.91	0.325432
3678.84	0.321764
3680.77	0.316651
3682.7	0.311777
3684.63	0.308915
3686.56	0.309021
3688.48	0.311487
3690.41	0.314369
3692.34	0.316438
3694.27	0.318259
3696.2	0.320978
3698.13	0.324834
3700.06	0.328472
3701.99	0.329851
3703.92	0.328403
3705.85	0.325317
3707.78	0.321936
3709.7	0.31897
3711.63	0.316794
3713.56	0.315669
3715.49	0.315597
3717.42	0.316415
3719.35	0.318112
3721.28	0.320895
3723.21	0.324575
3725.14	0.327881
3727.07	0.32919
3729	0.328118
3730.93	0.325766
3732.85	0.323425
3734.78	0.321223
3736.71	0.318513
3738.64	0.315396
3740.57	0.312698
3742.5	0.311159
3744.43	0.311254
3746.36	0.313499
3748.29	0.318238
3750.22	0.324257
3752.15	0.328376
3754.07	0.328446
3756	0.325713
3757.93	0.322814
3759.86	0.321052
3761.79	0.319924
3763.72	0.318679
3765.65	0.317642
3767.58	0.317681
3769.51	0.318901
3771.44	0.320449
3773.37	0.321649
3775.29	0.322619
3777.22	0.323927
3779.15	0.326153
3781.08	0.329352
3783.01	0.332459
3784.94	0.333513
3786.87	0.331163
3788.8	0.326232
3790.73	0.321242
3792.66	0.318206
3794.59	0.317458
3796.52	0.318486
3798.44	0.321123
3800.37	0.325409
3802.3	0.330508
3804.23	0.334602
3806.16	0.336138
3808.09	0.334958
3810.02	0.332238
3811.95	0.329669
3813.88	0.328618
3815.81	0.329144
3817.74	0.32946
3819.66	0.327606
3821.59	0.324082
3823.52	0.32124
3825.45	0.320467
3827.38	0.321511
3829.31	0.323928
3831.24	0.327815
3833.17	0.332658
3835.1	0.336285
3837.03	0.336449
3838.96	0.333548
3840.89	0.329905
3842.81	0.326725
3844.74	0.32401
3846.67	0.322641
3848.6	0.324668
3850.53	0.331165
3852.46	0.338883
3854.39	0.341585
3856.32	0.339103
3858.25	0.336539
3860.18	0.336626
3862.11	0.338391
3864.03	0.339335
3865.96	0.338454
3867.89	0.336797
3869.82	0.335246
3871.75	0.333456
3873.68	0.330952
3875.61	0.328162
3877.54	0.326136
3879.47	0.326011
3881.4	0.328587
3883.33	0.333557
3885.25	0.339032
3887.18	0.342442
3889.11	0.34251
3891.04	0.340515
3892.97	0.339067
3894.9	0.339319
3896.83	0.340055
3898.76	0.339496
3900.69	0.337526
3902.62	0.335733
3904.55	0.334874
3906.48	0.333933
3908.4	0.332296
3910.33	0.331077
3912.26	0.33182
3914.19	0.334592
3916.12	0.337806
3918.05	0.340046
3919.98	0.341422
3921.91	0.342502
3923.84	0.342747
3925.77	0.340954
3927.7	0.336932
3929.62	0.332158
3931.55	0.328698
3933.48	0.327622
3935.41	0.328528
3937.34	0.330519
3939.27	0.33322
3941.2	0.336617
3943.13	0.340169
3945.06	0.342699
3946.99	0.343467
3948.92	0.342983
3950.85	0.342257
3952.77	0.341389
3954.7	0.339594
3956.63	0.336725
3958.56	0.334039
3960.49	0.333012
3962.42	0.33385
3964.35	0.335761
3966.28	0.338237
3968.21	0.341151
3970.14	0.34376
3972.07	0.344721
3973.99	0.343571
3975.92	0.341448
3977.85	0.339715
3979.78	0.338447
3981.71	0.336879
3983.64	0.33491
3985.57	0.333392
3987.5	0.333024
3989.43	0.333661
3991.36	0.334897
3993.29	0.336737
3995.22	0.339232
3997.14	0.341675
3999.07	0.342718
4001	0.341498
4002.93	0.338584
4004.86	0.335745
4006.79	0.334688
4008.72	0.335712
4010.65	0.337432
4012.58	0.338042
4014.51	0.337194
4016.44	0.336524
4018.36	0.337926
4020.29	0.34132
4022.22	0.34462
4024.15	0.34618
4026.08	0.346689
4028.01	0.34788
4029.94	0.349755
4031.87	0.350328
4033.8	0.34828
4035.73	0.344661
4037.66	0.341167
4039.58	0.337926
4041.51	0.334386
4043.44	0.331722
4045.37	0.332414
4047.3	0.336923
4049.23	0.342215
4051.16	0.344611
4053.09	0.343532
4055.02	0.341305
4056.95	0.339866
4058.88	0.339225
4060.81	0.338878
4062.73	0.339054
4064.66	0.339933
4066.59	0.340745
4068.52	0.340575
4070.45	0.339678
4072.38	0.339335
4074.31	0.340501
4076.24	0.342984
4078.17	0.3457
4080.1	0.347399
4082.03	0.347374
4083.95	0.345913
4085.88	0.344044
4087.81	0.342642
4089.74	0.341835
4091.67	0.341352
4093.6	0.341016
4095.53	0.340628
4097.46	0.339921
4099.39	0.339218
4101.32	0.339748
4103.25	0.342407
4105.18	0.346161
4107.1	0.348508
4109.03	0.347966
4110.96	0.34544
4112.89	0.342738
4114.82	0.340497
4116.75	0.338258
4118.68	0.335954
4120.61	0.334301
4122.54	0.333722
4124.47	0.333817
4126.4	0.334264
4128.32	0.335613
4130.25	0.338617
4132.18	0.34299
4134.11	0.347212
4136.04	0.349563
4137.97	0.349229
4139.9	0.346636
4141.83	0.34312
4143.76	0.340224
4145.69	0.338721
4147.62	0.337975
4149.54	0.336622
4151.47	0.334257
4153.4	0.332226
4155.33	0.332498
4157.26	0.335841
4159.19	0.341081
4161.12	0.345844
4163.05	0.34794
4164.98	0.346493
4166.91	0.342485
4168.84	0.338173
4170.77	0.33539
4172.69	0.334176
4174.62	0.33335
4176.55	0.332385
4178.48	0.332313
4180.41	0.334488
4182.34	0.338791
4184.27	0.343451
4186.2	0.346534
4188.13	0.347394
4190.06	0.346834
4191.99	0.346144
4193.91	0.346123
4195.84	0.346706
4197.77	0.347118
4199.7	0.346395
4201.63	0.34415
4203.56	0.341171
4205.49	0.33909
4207.42	0.339018
4209.35	0.340363
4211.28	0.341316
4213.21	0.340968
4215.14	0.340647
4217.06	0.342342
4218.99	0.345803
4220.92	0.348157
4222.85	0.34709
4224.78	0.343667
4226.71	0.340883
4228.64	0.339974
4230.57	0.339358
4232.5	0.337208
4234.43	0.33405
4236.36	0.332191
4238.28	0.333304
4240.21	0.337167
4242.14	0.342234
4244.07	0.346798
4246	0.349736
4247.93	0.350864
4249.86	0.350886
4251.79	0.35063
4253.72	0.350169
4255.65	0.349015
4257.58	0.34717
4259.5	0.345468
4261.43	0.344532
4263.36	0.343883
4265.29	0.342678
4267.22	0.341182
4269.15	0.340826
4271.08	0.342523
4273.01	0.345203
4274.94	0.346424
4276.87	0.344637
4278.8	0.340667
4280.73	0.33689
4282.65	0.335106
4284.58	0.335212
4286.51	0.335766
4288.44	0.335783
4290.37	0.335739
4292.3	0.336655
4294.23	0.338527
4296.16	0.340189
4298.09	0.340828
4300.02	0.341102
4301.95	0.342252
4303.87	0.344398
4305.8	0.346234
4307.73	0.346414
4309.66	0.344821
4311.59	0.3424
4313.52	0.340289
4315.45	0.339381
4317.38	0.340177
4319.31	0.342448
4321.24	0.345078
4323.17	0.346689
4325.1	0.346775
4327.02	0.346238
4328.95	0.346559
4330.88	0.348192
4332.81	0.349699
4334.74	0.348816
4336.67	0.344846
4338.6	0.339782
4340.53	0.336504
4342.46	0.335931
4344.39	0.336479
4346.32	0.336511
4348.24	0.336495
4350.17	0.33795
4352.1	0.340906
4354.03	0.34368
4355.96	0.34517
4357.89	0.346116
4359.82	0.347558
4361.75	0.349153
4363.68	0.349854
4365.61	0.349466
4367.54	0.34848
4369.46	0.346941
4371.39	0.344767
4373.32	0.343034
4375.25	0.343418
4377.18	0.345906
4379.11	0.34825
4381.04	0.348628
4382.97	0.348083
4384.9	0.348906
4386.83	0.351022
4388.76	0.351668
4390.69	0.349112
4392.61	0.345236
4394.54	0.343235
4396.47	0.343803
4398.4	0.344943
4400.33	0.345047
4402.26	0.344697
4404.19	0.345135
4406.12	0.346417
4408.05	0.347961
4409.98	0.349889
4411.91	0.352495
4413.83	0.354756
4415.76	0.354717
4417.69	0.351679
4419.62	0.347064
4421.55	0.342748
4423.48	0.33956
4425.41	0.337871
4427.34	0.338469
4429.27	0.341587
4431.2	0.345417
4433.13	0.347059
4435.06	0.345603
4436.98	0.343472
4438.91	0.343829
4440.84	0.346973
4442.77	0.350126
4444.7	0.350689
4446.63	0.348799
4448.56	0.346322
4450.49	0.344209
4452.42	0.342045
4454.35	0.340001
4456.28	0.339754
4458.2	0.342607
4460.13	0.347344
4462.06	0.351103
4463.99	0.3525
4465.92	0.352804
4467.85	0.353595
4469.78	0.35431
4471.71	0.353135
4473.64	0.349848
4475.57	0.346426
4477.5	0.344681
4479.43	0.344304
4481.35	0.343844
4483.28	0.342957
4485.21	0.34274
4487.14	0.344108
4489.07	0.346776
4491	0.349982
4492.93	0.353209
4494.86	0.355559
4496.79	0.35534
4498.72	0.351597
4500.65	0.345901
4502.57	0.341419
4504.5	0.339926
4506.43	0.340538
4508.36	0.341593
4510.29	0.342792
4512.22	0.344689
4514.15	0.346819
4516.08	0.3478
4518.01	0.347471
4519.94	0.347616
4521.87	0.3498
4523.79	0.353265
4525.72	0.355615
4527.65	0.355167
4529.58	0.352024
4531.51	0.347313
4533.44	0.34257
4535.37	0.339844
4537.3	0.340928
4539.23	0.345529
4541.16	0.350883
4543.09	0.354067
4545.02	0.35456
4546.94	0.354027
4548.87	0.353898
4550.8	0.353958
4552.73	0.353243
4554.66	0.351373
4556.59	0.348567
4558.52	0.344964
4560.45	0.340722
4562.38	0.336803
4564.31	0.335069
4566.24	0.337078
4568.16	0.342548
4570.09	0.348953
4572.02	0.353165
4573.95	0.354239
4575.88	0.354027
4577.81	0.354449
4579.74	0.355113
4581.67	0.354543
4583.6	0.353167
4585.53	0.353235
4587.46	0.35531
4589.39	0.35676
4591.31	0.355078
4593.24	0.35156
4595.17	0.349858
4597.1	0.351409
4599.03	0.35409
4600.96	0.355224
4602.89	0.354226
4604.82	0.351903
4606.75	0.349088
4608.68	0.347004
4610.61	0.347129
4612.53	0.349024
4614.46	0.349558
4616.39	0.346383
4618.32	0.341572
4620.25	0.339606
4622.18	0.34216
4624.11	0.34672
4626.04	0.350303
4627.97	0.352519
4629.9	0.3541
4631.83	0.354652
4633.75	0.353515
4635.68	0.351251
4637.61	0.348485
4639.54	0.344666
4641.47	0.340014
4643.4	0.337477
4645.33	0.340018
4647.26	0.346146
4649.19	0.350614
4651.12	0.35036
4653.05	0.347838
4654.98	0.347244
4656.9	0.349334
4658.83	0.35156
4660.76	0.352132
4662.69	0.351896
4664.62	0.352223
4666.55	0.352951
4668.48	0.352998
4670.41	0.351855
4672.34	0.34978
4674.27	0.34732
4676.2	0.345384
4678.12	0.345243
4680.05	0.347546
4681.98	0.351328
4683.91	0.354587
4685.84	0.356079
4687.77	0.356179
4689.7	0.355837
4691.63	0.355258
4693.56	0.354028
4695.49	0.352099
4697.42	0.350077
4699.35	0.348632
4701.27	0.348151
4703.2	0.348862
4705.13	0.350642
4707.06	0.352691
4708.99	0.35422
4710.92	0.355785
4712.85	0.358936
4714.78	0.363763
4716.71	0.367525
4718.64	0.366908
4720.57	0.361649
4722.49	0.354991
4724.42	0.350518
4726.35	0.349486
4728.28	0.350953
4730.21	0.353016
4732.14	0.353623
4734.07	0.351567
4736	0.347658
4737.93	0.344277
4739.86	0.343068
4741.79	0.343595
4743.71	0.344755
4745.64	0.346459
4747.57	0.348868
4749.5	0.350806
4751.43	0.350645
4753.36	0.348759
4755.29	0.347462
4757.22	0.348122
4759.15	0.349611
4761.08	0.35027
4763.01	0.350334
4764.94	0.351246
4766.86	0.353351
4768.79	0.355518
4770.72	0.356645
4772.65	0.356511
4774.58	0.355285
4776.51	0.35332
4778.44	0.351587
4780.37	0.351235
4782.3	0.352324
4784.23	0.353723
4786.16	0.354534
4788.08	0.354835
4790.01	0.354764
4791.94	0.35392
4793.87	0.352511
4795.8	0.352221
4797.73	0.354686
4799.66	0.359232
4801.59	0.362963
4803.52	0.363525
4805.45	0.361346
4807.38	0.358546
4809.31	0.356231
4811.23	0.353786
4813.16	0.350682
4815.09	0.348091
4817.02	0.347867
4818.95	0.350143
4820.88	0.353107
4822.81	0.355475
4824.74	0.357977
4826.67	0.361308
4828.6	0.363587
4830.53	0.361831
4832.45	0.356006
4834.38	0.349553
4836.31	0.345517
4838.24	0.344249
4840.17	0.345231
4842.1	0.348789
4844.03	0.354386
4845.96	0.358846
4847.89	0.358948
4849.82	0.355622
4851.75	0.353175
4853.68	0.35417
4855.6	0.356998
4857.53	0.358724
4859.46	0.358556
4861.39	0.357339
4863.32	0.355251
4865.25	0.352051
4867.18	0.349079
4869.11	0.349191
4871.04	0.354006
4872.97	0.36188
4874.9	0.369033
4876.82	0.372529
4878.75	0.372032
4880.68	0.368846
4882.61	0.364096
4884.54	0.358652
4886.47	0.354303
4888.4	0.353412
4890.33	0.356651
4892.26	0.36181
4894.19	0.36594
4896.12	0.368459
4898.04	0.371047
4899.97	0.374697
4901.9	0.378245
4903.83	0.380056
4905.76	0.379982
4907.69	0.378882
4909.62	0.376957
4911.55	0.373481
4913.48	0.3681
4915.41	0.361882
4917.34	0.357072
4919.27	0.355695
4921.19	0.357871
4923.12	0.361358
4925.05	0.363314
4926.98	0.362785
4928.91	0.361111
4930.84	0.359905
4932.77	0.359284
4934.7	0.358408
4936.63	0.357163
4938.56	0.356487
4940.49	0.357028
4942.41	0.358016
4944.34	0.357823
4946.27	0.355709
4948.2	0.352861
4950.13	0.351388
4952.06	0.352195
4953.99	0.354264
4955.92	0.356214
4957.85	0.357955
4959.78	0.360177
4961.71	0.362706
4963.64	0.3644
4965.56	0.364687
4967.49	0.364097
4969.42	0.363
4971.35	0.36096
4973.28	0.358063
4975.21	0.355865
4977.14	0.355892
4979.07	0.357694
4981	0.359504
4982.93	0.360733
4984.86	0.36256
4986.78	0.365662
4988.71	0.368643
4990.64	0.36968
4992.57	0.369024
4994.5	0.368567
4996.43	0.368986
4998.36	0.368527
