##TITLE=4 liq box interferogram
##$NOTE=11.03.2023 11:51:3 ^0 x10 v:1
##$ITAB=-1,-1
##FIRSTX=0
##DELTAX=1
##NPOINTS=6490
##XUNITS=1/CM
##YUNITS=ABSORBANCE
0	1.92188
1	5.92188
2	5.92188
3	3.92188
4	-0.078125
5	1.92188
6	2.92188
7	2.92188
8	4.92188
9	4.92188
10	-2.07813
11	-7.07813
12	-14.0781
13	-15.0781
14	-15.0781
15	-11.0781
16	-9.07813
17	-7.07813
18	-0.078125
19	5.92188
20	6.92188
21	10.9219
22	13.9219
23	15.9219
24	13.9219
25	14.9219
26	5.92188
27	-0.078125
28	-10.0781
29	-12.0781
30	-17.0781
31	-19.0781
32	-15.0781
33	-10.0781
34	-5.07813
35	2.92188
36	11.9219
37	14.9219
38	16.9219
39	13.9219
40	12.9219
41	14.9219
42	11.9219
43	9.92188
44	1.92188
45	-6.07813
46	-11.0781
47	-14.0781
48	-15.0781
49	-18.0781
50	-17.0781
51	-14.0781
52	-9.07813
53	-6.07813
54	0.921875
55	3.92188
56	8.92188
57	11.9219
58	15.9219
59	16.9219
60	17.9219
61	17.9219
62	11.9219
63	3.92188
64	-8.07813
65	-17.0781
66	-24.0781
67	-30.0781
68	-26.0781
69	-26.0781
70	-24.0781
71	-17.0781
72	-4.07813
73	7.92188
74	18.9219
75	26.9219
76	35.9219
77	38.9219
78	36.9219
79	33.9219
80	23.9219
81	8.92188
82	-9.07813
83	-22.0781
84	-29.0781
85	-35.0781
86	-40.0781
87	-37.0781
88	-30.0781
89	-20.0781
90	-9.07813
91	3.92188
92	14.9219
93	22.9219
94	33.9219
95	37.9219
96	38.9219
97	35.9219
98	29.9219
99	18.9219
100	4.92188
101	-13.0781
102	-25.0781
103	-35.0781
104	-42.0781
105	-42.0781
106	-41.0781
107	-40.0781
108	-35.0781
109	-22.0781
110	-11.0781
111	6.92188
112	23.9219
113	38.9219
114	53.9219
115	56.9219
116	53.9219
117	46.9219
118	29.9219
119	12.9219
120	-6.07813
121	-24.0781
122	-39.0781
123	-53.0781
124	-56.0781
125	-53.0781
126	-46.0781
127	-35.0781
128	-19.0781
129	0.921875
130	22.9219
131	36.9219
132	49.9219
133	55.9219
134	57.9219
135	50.9219
136	38.9219
137	29.9219
138	13.9219
139	-7.07813
140	-24.0781
141	-41.0781
142	-53.0781
143	-54.0781
144	-53.0781
145	-51.0781
146	-39.0781
147	-27.0781
148	-12.0781
149	3.92188
150	19.9219
151	32.9219
152	44.9219
153	51.9219
154	53.9219
155	52.9219
156	42.9219
157	27.9219
158	6.92188
159	-11.0781
160	-26.0781
161	-42.0781
162	-51.0781
163	-57.0781
164	-58.0781
165	-50.0781
166	-36.0781
167	-23.0781
168	-4.07813
169	9.92188
170	31.9219
171	44.9219
172	54.9219
173	54.9219
174	49.9219
175	41.9219
176	27.9219
177	14.9219
178	1.92188
179	-12.0781
180	-24.0781
181	-31.0781
182	-38.0781
183	-40.0781
184	-39.0781
185	-32.0781
186	-21.0781
187	-9.07813
188	-2.07813
189	4.92188
190	14.9219
191	21.9219
192	30.9219
193	31.9219
194	32.9219
195	29.9219
196	22.9219
197	17.9219
198	6.92188
199	-4.07813
200	-12.0781
201	-22.0781
202	-31.0781
203	-34.0781
204	-29.0781
205	-27.0781
206	-26.0781
207	-18.0781
208	-11.0781
209	1.92188
210	12.9219
211	19.9219
212	25.9219
213	23.9219
214	19.9219
215	14.9219
216	9.92188
217	1.92188
218	0.921875
219	2.92188
220	1.92188
221	-4.07813
222	-3.07813
223	-4.07813
224	-4.07813
225	-1.07813
226	-0.078125
227	-2.07813
228	-2.07813
229	-2.07813
230	-7.07813
231	-10.0781
232	-11.0781
233	-10.0781
234	-9.07813
235	-3.07813
236	-0.078125
237	6.92188
238	14.9219
239	14.9219
240	14.9219
241	11.9219
242	13.9219
243	8.92188
244	8.92188
245	7.92188
246	2.92188
247	-7.07813
248	-14.0781
249	-20.0781
250	-19.0781
251	-22.0781
252	-21.0781
253	-20.0781
254	-15.0781
255	-15.0781
256	-9.07813
257	-6.07813
258	0.921875
259	11.9219
260	22.9219
261	29.9219
262	37.9219
263	41.9219
264	37.9219
265	29.9219
266	15.9219
267	4.92188
268	-6.07813
269	-17.0781
270	-31.0781
271	-43.0781
272	-46.0781
273	-46.0781
274	-37.0781
275	-29.0781
276	-16.0781
277	2.92188
278	17.9219
279	37.9219
280	43.9219
281	50.9219
282	48.9219
283	41.9219
284	36.9219
285	24.9219
286	10.9219
287	-4.07813
288	-20.0781
289	-36.0781
290	-44.0781
291	-51.0781
292	-51.0781
293	-43.0781
294	-41.0781
295	-32.0781
296	-19.0781
297	-5.07813
298	10.9219
299	25.9219
300	37.9219
301	51.9219
302	58.9219
303	52.9219
304	45.9219
305	36.9219
306	16.9219
307	-4.07813
308	-20.0781
309	-33.0781
310	-48.0781
311	-58.0781
312	-58.0781
313	-55.0781
314	-46.0781
315	-32.0781
316	-11.0781
317	10.9219
318	34.9219
319	47.9219
320	54.9219
321	56.9219
322	57.9219
323	46.9219
324	35.9219
325	24.9219
326	4.92188
327	-10.0781
328	-26.0781
329	-38.0781
330	-51.0781
331	-53.0781
332	-50.0781
333	-42.0781
334	-30.0781
335	-17.0781
336	-2.07813
337	5.92188
338	17.9219
339	27.9219
340	31.9219
341	37.9219
342	35.9219
343	36.9219
344	27.9219
345	16.9219
346	6.92188
347	-13.0781
348	-24.0781
349	-33.0781
350	-37.0781
351	-38.0781
352	-35.0781
353	-28.0781
354	-22.0781
355	-10.0781
356	4.92188
357	10.9219
358	18.9219
359	28.9219
360	30.9219
361	30.9219
362	25.9219
363	14.9219
364	5.92188
365	-1.07813
366	-9.07813
367	-11.0781
368	-12.0781
369	-12.0781
370	-12.0781
371	-8.07813
372	-2.07813
373	-1.07813
374	2.92188
375	2.92188
376	-0.078125
377	0.921875
378	-0.078125
379	-4.07813
380	-9.07813
381	-10.0781
382	-5.07813
383	-3.07813
384	-2.07813
385	0.921875
386	1.92188
387	4.92188
388	6.92188
389	6.92188
390	2.92188
391	3.92188
392	2.92188
393	2.92188
394	2.92188
395	-6.07813
396	-9.07813
397	-11.0781
398	-13.0781
399	-13.0781
400	-16.0781
401	-12.0781
402	-6.07813
403	-4.07813
404	-1.07813
405	4.92188
406	8.92188
407	13.9219
408	16.9219
409	19.9219
410	26.9219
411	22.9219
412	17.9219
413	9.92188
414	1.92188
415	-4.07813
416	-11.0781
417	-22.0781
418	-23.0781
419	-21.0781
420	-19.0781
421	-13.0781
422	-5.07813
423	2.92188
424	8.92188
425	15.9219
426	20.9219
427	24.9219
428	20.9219
429	13.9219
430	6.92188
431	-1.07813
432	-15.0781
433	-22.0781
434	-24.0781
435	-25.0781
436	-19.0781
437	-16.0781
438	-14.0781
439	-6.07813
440	4.92188
441	7.92188
442	12.9219
443	18.9219
444	20.9219
445	19.9219
446	13.9219
447	7.92188
448	3.92188
449	-5.07813
450	-13.0781
451	-19.0781
452	-21.0781
453	-21.0781
454	-15.0781
455	-14.0781
456	-13.0781
457	-4.07813
458	3.92188
459	10.9219
460	17.9219
461	24.9219
462	30.9219
463	32.9219
464	27.9219
465	20.9219
466	13.9219
467	0.921875
468	-12.0781
469	-21.0781
470	-33.0781
471	-35.0781
472	-38.0781
473	-37.0781
474	-32.0781
475	-20.0781
476	-7.07813
477	6.92188
478	22.9219
479	34.9219
480	41.9219
481	41.9219
482	34.9219
483	29.9219
484	17.9219
485	3.92188
486	-10.0781
487	-16.0781
488	-26.0781
489	-37.0781
490	-45.0781
491	-41.0781
492	-34.0781
493	-25.0781
494	-17.0781
495	-7.07813
496	2.92188
497	14.9219
498	23.9219
499	28.9219
500	29.9219
501	36.9219
502	31.9219
503	28.9219
504	25.9219
505	18.9219
506	8.92188
507	-1.07813
508	-17.0781
509	-23.0781
510	-29.0781
511	-33.0781
512	-33.0781
513	-30.0781
514	-22.0781
515	-15.0781
516	-3.07813
517	2.92188
518	10.9219
519	21.9219
520	24.9219
521	31.9219
522	29.9219
523	31.9219
524	23.9219
525	14.9219
526	1.92188
527	-6.07813
528	-17.0781
529	-22.0781
530	-27.0781
531	-24.0781
532	-23.0781
533	-22.0781
534	-18.0781
535	-19.0781
536	-10.0781
537	-5.07813
538	-1.07813
539	9.92188
540	13.9219
541	18.9219
542	20.9219
543	20.9219
544	19.9219
545	14.9219
546	12.9219
547	13.9219
548	9.92188
549	5.92188
550	-3.07813
551	-13.0781
552	-21.0781
553	-24.0781
554	-25.0781
555	-24.0781
556	-14.0781
557	-3.07813
558	0.921875
559	10.9219
560	12.9219
561	17.9219
562	15.9219
563	11.9219
564	13.9219
565	16.9219
566	12.9219
567	9.92188
568	4.92188
569	-4.07813
570	-8.07813
571	-11.0781
572	-10.0781
573	-11.0781
574	-8.07813
575	-3.07813
576	-2.07813
577	-7.07813
578	-11.0781
579	-13.0781
580	-10.0781
581	-11.0781
582	-3.07813
583	2.92188
584	1.92188
585	8.92188
586	10.9219
587	7.92188
588	3.92188
589	5.92188
590	8.92188
591	9.92188
592	8.92188
593	8.92188
594	0.921875
595	-4.07813
596	-8.07813
597	-12.0781
598	-8.07813
599	-7.07813
600	-5.07813
601	-0.078125
602	0.921875
603	0.921875
604	0.921875
605	-3.07813
606	-3.07813
607	0.921875
608	4.92188
609	9.92188
610	13.9219
611	14.9219
612	11.9219
613	9.92188
614	5.92188
615	2.92188
616	-0.078125
617	-3.07813
618	-9.07813
619	-14.0781
620	-18.0781
621	-23.0781
622	-23.0781
623	-22.0781
624	-15.0781
625	-7.07813
626	1.92188
627	12.9219
628	18.9219
629	21.9219
630	25.9219
631	19.9219
632	14.9219
633	13.9219
634	5.92188
635	-2.07813
636	-6.07813
637	-13.0781
638	-19.0781
639	-20.0781
640	-20.0781
641	-16.0781
642	-11.0781
643	-6.07813
644	-1.07813
645	4.92188
646	6.92188
647	11.9219
648	13.9219
649	18.9219
650	16.9219
651	18.9219
652	16.9219
653	8.92188
654	6.92188
655	0.921875
656	-4.07813
657	-12.0781
658	-17.0781
659	-18.0781
660	-20.0781
661	-19.0781
662	-16.0781
663	-12.0781
664	-3.07813
665	1.92188
666	8.92188
667	13.9219
668	18.9219
669	18.9219
670	19.9219
671	17.9219
672	5.92188
673	4.92188
674	-3.07813
675	-14.0781
676	-20.0781
677	-22.0781
678	-21.0781
679	-19.0781
680	-16.0781
681	-13.0781
682	-3.07813
683	2.92188
684	6.92188
685	10.9219
686	10.9219
687	12.9219
688	11.9219
689	9.92188
690	6.92188
691	6.92188
692	4.92188
693	1.92188
694	1.92188
695	1.92188
696	1.92188
697	-1.07813
698	-5.07813
699	-7.07813
700	-7.07813
701	-7.07813
702	-6.07813
703	-3.07813
704	-2.07813
705	0.921875
706	5.92188
707	7.92188
708	9.92188
709	8.92188
710	9.92188
711	4.92188
712	7.92188
713	4.92188
714	-1.07813
715	-4.07813
716	-13.0781
717	-15.0781
718	-18.0781
719	-19.0781
720	-18.0781
721	-13.0781
722	-3.07813
723	3.92188
724	6.92188
725	4.92188
726	5.92188
727	7.92188
728	5.92188
729	2.92188
730	0.921875
731	4.92188
732	1.92188
733	-2.07813
734	-0.078125
735	-3.07813
736	-2.07813
737	-7.07813
738	-6.07813
739	-5.07813
740	-3.07813
741	-5.07813
742	-4.07813
743	-4.07813
744	-2.07813
745	2.92188
746	10.9219
747	17.9219
748	20.9219
749	23.9219
750	22.9219
751	13.9219
752	5.92188
753	1.92188
754	-9.07813
755	-18.0781
756	-26.0781
757	-25.0781
758	-23.0781
759	-26.0781
760	-23.0781
761	-7.07813
762	4.92188
763	6.92188
764	12.9219
765	21.9219
766	26.9219
767	27.9219
768	24.9219
769	14.9219
770	2.92188
771	-8.07813
772	-16.0781
773	-17.0781
774	-23.0781
775	-28.0781
776	-25.0781
777	-19.0781
778	-12.0781
779	-5.07813
780	1.92188
781	5.92188
782	10.9219
783	11.9219
784	20.9219
785	20.9219
786	19.9219
787	17.9219
788	13.9219
789	7.92188
790	4.92188
791	0.921875
792	-7.07813
793	-11.0781
794	-14.0781
795	-18.0781
796	-17.0781
797	-15.0781
798	-10.0781
799	-4.07813
800	4.92188
801	12.9219
802	19.9219
803	18.9219
804	16.9219
805	11.9219
806	5.92188
807	-1.07813
808	-8.07813
809	-13.0781
810	-19.0781
811	-20.0781
812	-21.0781
813	-21.0781
814	-14.0781
815	-5.07813
816	5.92188
817	16.9219
818	20.9219
819	22.9219
820	20.9219
821	10.9219
822	2.92188
823	-6.07813
824	-13.0781
825	-22.0781
826	-22.0781
827	-22.0781
828	-15.0781
829	-13.0781
830	-7.07813
831	0.921875
832	4.92188
833	11.9219
834	21.9219
835	22.9219
836	19.9219
837	15.9219
838	10.9219
839	5.92188
840	-1.07813
841	-7.07813
842	-11.0781
843	-7.07813
844	-5.07813
845	-7.07813
846	-10.0781
847	-12.0781
848	-9.07813
849	-10.0781
850	-9.07813
851	-7.07813
852	-3.07813
853	2.92188
854	5.92188
855	7.92188
856	9.92188
857	14.9219
858	12.9219
859	12.9219
860	5.92188
861	3.92188
862	-3.07813
863	-10.0781
864	-16.0781
865	-18.0781
866	-18.0781
867	-16.0781
868	-8.07813
869	-5.07813
870	2.92188
871	6.92188
872	10.9219
873	8.92188
874	7.92188
875	8.92188
876	6.92188
877	3.92188
878	-2.07813
879	-3.07813
880	-6.07813
881	-1.07813
882	0.921875
883	1.92188
884	6.92188
885	3.92188
886	8.92188
887	4.92188
888	2.92188
889	-2.07813
890	-8.07813
891	-6.07813
892	-8.07813
893	-8.07813
894	-9.07813
895	-5.07813
896	0.921875
897	3.92188
898	6.92188
899	8.92188
900	8.92188
901	6.92188
902	-1.07813
903	-6.07813
904	-12.0781
905	-19.0781
906	-20.0781
907	-18.0781
908	-13.0781
909	-4.07813
910	6.92188
911	12.9219
912	19.9219
913	21.9219
914	19.9219
915	18.9219
916	15.9219
917	11.9219
918	5.92188
919	4.92188
920	2.92188
921	-0.078125
922	-0.078125
923	2.92188
924	3.92188
925	4.92188
926	10.9219
927	9.92188
928	9.92188
929	2.92188
930	-3.07813
931	-5.07813
932	-11.0781
933	-21.0781
934	-32.0781
935	-40.0781
936	-58.0781
937	-77.0781
938	-97.0781
939	-108.078
940	-109.078
941	-90.0781
942	-49.0781
943	16.9219
944	91.9219
945	163.922
946	215.922
947	231.922
948	211.922
949	161.922
950	90.9219
951	23.9219
952	-38.0781
953	-80.0781
954	-105.078
955	-111.078
956	-101.078
957	-86.0781
958	-73.0781
959	-54.0781
960	-42.0781
961	-33.0781
962	-30.0781
963	-27.0781
964	-20.0781
965	-12.0781
966	-9.07813
967	-3.07813
968	0.921875
969	7.92188
970	8.92188
971	8.92188
972	13.9219
973	20.9219
974	26.9219
975	32.9219
976	35.9219
977	37.9219
978	38.9219
979	33.9219
980	28.9219
981	19.9219
982	9.92188
983	-3.07813
984	-18.0781
985	-27.0781
986	-34.0781
987	-34.0781
988	-30.0781
989	-16.0781
990	-4.07813
991	2.92188
992	15.9219
993	20.9219
994	24.9219
995	24.9219
996	23.9219
997	13.9219
998	1.92188
999	-3.07813
1000	-11.0781
1001	-17.0781
1002	-23.0781
1003	-23.0781
1004	-22.0781
1005	-17.0781
1006	-14.0781
1007	-10.0781
1008	-7.07813
1009	-8.07813
1010	-6.07813
1011	-1.07813
1012	-1.07813
1013	0.921875
1014	2.92188
1015	8.92188
1016	9.92188
1017	15.9219
1018	17.9219
1019	14.9219
1020	11.9219
1021	3.92188
1022	-3.07813
1023	-12.0781
1024	-17.0781
1025	-16.0781
1026	-14.0781
1027	-14.0781
1028	-8.07813
1029	-0.078125
1030	9.92188
1031	14.9219
1032	20.9219
1033	27.9219
1034	30.9219
1035	26.9219
1036	15.9219
1037	1.92188
1038	-8.07813
1039	-19.0781
1040	-24.0781
1041	-24.0781
1042	-18.0781
1043	-11.0781
1044	-2.07813
1045	3.92188
1046	11.9219
1047	11.9219
1048	10.9219
1049	10.9219
1050	6.92188
1051	2.92188
1052	-9.07813
1053	-15.0781
1054	-15.0781
1055	-16.0781
1056	-18.0781
1057	-13.0781
1058	-11.0781
1059	-6.07813
1060	0.921875
1061	2.92188
1062	1.92188
1063	1.92188
1064	-0.078125
1065	0.921875
1066	-1.07813
1067	4.92188
1068	7.92188
1069	10.9219
1070	19.9219
1071	21.9219
1072	17.9219
1073	13.9219
1074	7.92188
1075	-0.078125
1076	-7.07813
1077	-17.0781
1078	-22.0781
1079	-26.0781
1080	-27.0781
1081	-25.0781
1082	-13.0781
1083	0.921875
1084	11.9219
1085	22.9219
1086	27.9219
1087	29.9219
1088	29.9219
1089	20.9219
1090	4.92188
1091	-5.07813
1092	-12.0781
1093	-18.0781
1094	-21.0781
1095	-24.0781
1096	-20.0781
1097	-14.0781
1098	-12.0781
1099	-6.07813
1100	4.92188
1101	9.92188
1102	12.9219
1103	10.9219
1104	4.92188
1105	-0.078125
1106	-6.07813
1107	-9.07813
1108	-5.07813
1109	-4.07813
1110	2.92188
1111	10.9219
1112	13.9219
1113	12.9219
1114	16.9219
1115	10.9219
1116	2.92188
1117	-3.07813
1118	-11.0781
1119	-12.0781
1120	-10.0781
1121	-9.07813
1122	-8.07813
1123	-2.07813
1124	2.92188
1125	9.92188
1126	13.9219
1127	16.9219
1128	15.9219
1129	10.9219
1130	1.92188
1131	-5.07813
1132	-15.0781
1133	-21.0781
1134	-18.0781
1135	-13.0781
1136	-5.07813
1137	6.92188
1138	14.9219
1139	18.9219
1140	21.9219
1141	19.9219
1142	11.9219
1143	4.92188
1144	-7.07813
1145	-15.0781
1146	-20.0781
1147	-22.0781
1148	-17.0781
1149	-16.0781
1150	-11.0781
1151	-5.07813
1152	5.92188
1153	10.9219
1154	14.9219
1155	16.9219
1156	14.9219
1157	7.92188
1158	-1.07813
1159	-6.07813
1160	-10.0781
1161	-12.0781
1162	-11.0781
1163	-5.07813
1164	-0.078125
1165	3.92188
1166	7.92188
1167	7.92188
1168	8.92188
1169	1.92188
1170	0.921875
1171	-4.07813
1172	-10.0781
1173	-15.0781
1174	-16.0781
1175	-10.0781
1176	-2.07813
1177	5.92188
1178	10.9219
1179	19.9219
1180	23.9219
1181	22.9219
1182	15.9219
1183	7.92188
1184	-6.07813
1185	-14.0781
1186	-21.0781
1187	-24.0781
1188	-24.0781
1189	-19.0781
1190	-15.0781
1191	-2.07813
1192	8.92188
1193	12.9219
1194	12.9219
1195	14.9219
1196	8.92188
1197	-1.07813
1198	-10.0781
1199	-17.0781
1200	-18.0781
1201	-18.0781
1202	-13.0781
1203	-2.07813
1204	9.92188
1205	11.9219
1206	18.9219
1207	21.9219
1208	14.9219
1209	10.9219
1210	0.921875
1211	-6.07813
1212	-14.0781
1213	-20.0781
1214	-23.0781
1215	-20.0781
1216	-16.0781
1217	-8.07813
1218	4.92188
1219	10.9219
1220	16.9219
1221	27.9219
1222	27.9219
1223	25.9219
1224	17.9219
1225	9.92188
1226	-3.07813
1227	-10.0781
1228	-15.0781
1229	-16.0781
1230	-14.0781
1231	-10.0781
1232	-8.07813
1233	-2.07813
1234	2.92188
1235	-2.07813
1236	-10.0781
1237	-14.0781
1238	-16.0781
1239	-16.0781
1240	-14.0781
1241	-6.07813
1242	2.92188
1243	11.9219
1244	24.9219
1245	32.9219
1246	34.9219
1247	28.9219
1248	24.9219
1249	13.9219
1250	-2.07813
1251	-18.0781
1252	-33.0781
1253	-41.0781
1254	-45.0781
1255	-42.0781
1256	-30.0781
1257	-15.0781
1258	2.92188
1259	17.9219
1260	29.9219
1261	40.9219
1262	43.9219
1263	37.9219
1264	30.9219
1265	16.9219
1266	1.92188
1267	-3.07813
1268	-9.07813
1269	-9.07813
1270	-5.07813
1271	-1.07813
1272	-0.078125
1273	-0.078125
1274	-0.078125
1275	-8.07813
1276	-11.0781
1277	-15.0781
1278	-14.0781
1279	-17.0781
1280	-18.0781
1281	-14.0781
1282	-5.07813
1283	0.921875
1284	6.92188
1285	14.9219
1286	24.9219
1287	29.9219
1288	27.9219
1289	17.9219
1290	7.92188
1291	-8.07813
1292	-17.0781
1293	-32.0781
1294	-35.0781
1295	-33.0781
1296	-22.0781
1297	-9.07813
1298	5.92188
1299	14.9219
1300	22.9219
1301	27.9219
1302	27.9219
1303	20.9219
1304	11.9219
1305	3.92188
1306	-4.07813
1307	-10.0781
1308	-13.0781
1309	-13.0781
1310	-6.07813
1311	-1.07813
1312	5.92188
1313	9.92188
1314	8.92188
1315	14.9219
1316	7.92188
1317	-2.07813
1318	-11.0781
1319	-14.0781
1320	-13.0781
1321	-14.0781
1322	-12.0781
1323	-1.07813
1324	12.9219
1325	17.9219
1326	24.9219
1327	25.9219
1328	21.9219
1329	14.9219
1330	1.92188
1331	-17.0781
1332	-27.0781
1333	-33.0781
1334	-33.0781
1335	-29.0781
1336	-19.0781
1337	-9.07813
1338	0.921875
1339	11.9219
1340	21.9219
1341	28.9219
1342	29.9219
1343	21.9219
1344	10.9219
1345	0.921875
1346	-8.07813
1347	-16.0781
1348	-23.0781
1349	-19.0781
1350	-13.0781
1351	-9.07813
1352	0.921875
1353	13.9219
1354	18.9219
1355	20.9219
1356	14.9219
1357	7.92188
1358	2.92188
1359	-9.07813
1360	-15.0781
1361	-21.0781
1362	-16.0781
1363	-5.07813
1364	2.92188
1365	11.9219
1366	14.9219
1367	18.9219
1368	15.9219
1369	12.9219
1370	7.92188
1371	-5.07813
1372	-14.0781
1373	-18.0781
1374	-14.0781
1375	-10.0781
1376	-3.07813
1377	4.92188
1378	13.9219
1379	20.9219
1380	23.9219
1381	22.9219
1382	13.9219
1383	0.921875
1384	-15.0781
1385	-27.0781
1386	-41.0781
1387	-46.0781
1388	-41.0781
1389	-33.0781
1390	-15.0781
1391	6.92188
1392	24.9219
1393	40.9219
1394	45.9219
1395	44.9219
1396	40.9219
1397	27.9219
1398	9.92188
1399	-6.07813
1400	-18.0781
1401	-31.0781
1402	-36.0781
1403	-35.0781
1404	-28.0781
1405	-15.0781
1406	-4.07813
1407	2.92188
1408	12.9219
1409	16.9219
1410	19.9219
1411	16.9219
1412	10.9219
1413	3.92188
1414	3.92188
1415	4.92188
1416	7.92188
1417	16.9219
1418	22.9219
1419	21.9219
1420	22.9219
1421	16.9219
1422	0.921875
1423	-14.0781
1424	-28.0781
1425	-42.0781
1426	-48.0781
1427	-45.0781
1428	-35.0781
1429	-24.0781
1430	-9.07813
1431	8.92188
1432	22.9219
1433	39.9219
1434	43.9219
1435	44.9219
1436	40.9219
1437	25.9219
1438	7.92188
1439	-16.0781
1440	-29.0781
1441	-44.0781
1442	-48.0781
1443	-41.0781
1444	-35.0781
1445	-15.0781
1446	-0.078125
1447	14.9219
1448	24.9219
1449	26.9219
1450	24.9219
1451	18.9219
1452	10.9219
1453	-0.078125
1454	-4.07813
1455	-3.07813
1456	0.921875
1457	9.92188
1458	14.9219
1459	22.9219
1460	19.9219
1461	17.9219
1462	16.9219
1463	3.92188
1464	-6.07813
1465	-21.0781
1466	-31.0781
1467	-36.0781
1468	-36.0781
1469	-29.0781
1470	-15.0781
1471	-2.07813
1472	13.9219
1473	27.9219
1474	33.9219
1475	34.9219
1476	28.9219
1477	12.9219
1478	-4.07813
1479	-15.0781
1480	-25.0781
1481	-28.0781
1482	-27.0781
1483	-19.0781
1484	-13.0781
1485	-6.07813
1486	2.92188
1487	9.92188
1488	7.92188
1489	9.92188
1490	7.92188
1491	2.92188
1492	-1.07813
1493	-7.07813
1494	-15.0781
1495	-18.0781
1496	-13.0781
1497	-0.078125
1498	12.9219
1499	26.9219
1500	33.9219
1501	35.9219
1502	36.9219
1503	25.9219
1504	12.9219
1505	-3.07813
1506	-17.0781
1507	-31.0781
1508	-35.0781
1509	-34.0781
1510	-26.0781
1511	-17.0781
1512	-8.07813
1513	2.92188
1514	12.9219
1515	21.9219
1516	18.9219
1517	18.9219
1518	7.92188
1519	-1.07813
1520	-6.07813
1521	-13.0781
1522	-12.0781
1523	-14.0781
1524	-4.07813
1525	2.92188
1526	8.92188
1527	14.9219
1528	10.9219
1529	4.92188
1530	-4.07813
1531	-17.0781
1532	-24.0781
1533	-33.0781
1534	-36.0781
1535	-33.0781
1536	-22.0781
1537	-10.0781
1538	7.92188
1539	20.9219
1540	33.9219
1541	37.9219
1542	34.9219
1543	25.9219
1544	12.9219
1545	-0.078125
1546	-9.07813
1547	-16.0781
1548	-22.0781
1549	-23.0781
1550	-20.0781
1551	-16.0781
1552	-11.0781
1553	-4.07813
1554	7.92188
1555	13.9219
1556	16.9219
1557	16.9219
1558	17.9219
1559	11.9219
1560	3.92188
1561	-4.07813
1562	-9.07813
1563	-10.0781
1564	-5.07813
1565	3.92188
1566	12.9219
1567	18.9219
1568	18.9219
1569	6.92188
1570	-5.07813
1571	-18.0781
1572	-28.0781
1573	-35.0781
1574	-39.0781
1575	-30.0781
1576	-17.0781
1577	-6.07813
1578	5.92188
1579	18.9219
1580	21.9219
1581	25.9219
1582	22.9219
1583	23.9219
1584	15.9219
1585	4.92188
1586	-5.07813
1587	-18.0781
1588	-24.0781
1589	-28.0781
1590	-28.0781
1591	-17.0781
1592	-5.07813
1593	7.92188
1594	16.9219
1595	23.9219
1596	16.9219
1597	8.92188
1598	1.92188
1599	-1.07813
1600	-4.07813
1601	-1.07813
1602	7.92188
1603	14.9219
1604	14.9219
1605	22.9219
1606	16.9219
1607	9.92188
1608	2.92188
1609	-5.07813
1610	-12.0781
1611	-17.0781
1612	-25.0781
1613	-23.0781
1614	-21.0781
1615	-18.0781
1616	-14.0781
1617	-5.07813
1618	5.92188
1619	10.9219
1620	16.9219
1621	21.9219
1622	25.9219
1623	19.9219
1624	10.9219
1625	0.921875
1626	-14.0781
1627	-23.0781
1628	-28.0781
1629	-27.0781
1630	-19.0781
1631	-11.0781
1632	1.92188
1633	9.92188
1634	14.9219
1635	13.9219
1636	8.92188
1637	5.92188
1638	-3.07813
1639	-5.07813
1640	-0.078125
1641	4.92188
1642	10.9219
1643	12.9219
1644	17.9219
1645	7.92188
1646	8.92188
1647	5.92188
1648	-0.078125
1649	-6.07813
1650	-13.0781
1651	-14.0781
1652	-17.0781
1653	-16.0781
1654	-12.0781
1655	-4.07813
1656	9.92188
1657	20.9219
1658	31.9219
1659	37.9219
1660	34.9219
1661	25.9219
1662	7.92188
1663	-16.0781
1664	-37.0781
1665	-51.0781
1666	-50.0781
1667	-42.0781
1668	-30.0781
1669	-16.0781
1670	2.92188
1671	13.9219
1672	19.9219
1673	16.9219
1674	14.9219
1675	15.9219
1676	14.9219
1677	15.9219
1678	13.9219
1679	8.92188
1680	2.92188
1681	-1.07813
1682	-9.07813
1683	-10.0781
1684	-6.07813
1685	-7.07813
1686	-5.07813
1687	-4.07813
1688	-10.0781
1689	-17.0781
1690	-19.0781
1691	-25.0781
1692	-24.0781
1693	-15.0781
1694	-4.07813
1695	15.9219
1696	36.9219
1697	54.9219
1698	63.9219
1699	62.9219
1700	49.9219
1701	29.9219
1702	2.92188
1703	-21.0781
1704	-40.0781
1705	-54.0781
1706	-59.0781
1707	-55.0781
1708	-39.0781
1709	-18.0781
1710	-3.07813
1711	12.9219
1712	26.9219
1713	27.9219
1714	24.9219
1715	18.9219
1716	7.92188
1717	-5.07813
1718	-14.0781
1719	-22.0781
1720	-21.0781
1721	-10.0781
1722	-0.078125
1723	10.9219
1724	22.9219
1725	30.9219
1726	30.9219
1727	20.9219
1728	-0.078125
1729	-19.0781
1730	-42.0781
1731	-55.0781
1732	-53.0781
1733	-40.0781
1734	-17.0781
1735	13.9219
1736	36.9219
1737	51.9219
1738	56.9219
1739	52.9219
1740	38.9219
1741	23.9219
1742	4.92188
1743	-11.0781
1744	-28.0781
1745	-39.0781
1746	-46.0781
1747	-45.0781
1748	-38.0781
1749	-17.0781
1750	7.92188
1751	33.9219
1752	57.9219
1753	67.9219
1754	68.9219
1755	50.9219
1756	19.9219
1757	-14.0781
1758	-46.0781
1759	-57.0781
1760	-55.0781
1761	-43.0781
1762	-21.0781
1763	-2.07813
1764	12.9219
1765	20.9219
1766	14.9219
1767	-3.07813
1768	-20.0781
1769	-40.0781
1770	-49.0781
1771	-50.0781
1772	-42.0781
1773	-27.0781
1774	-5.07813
1775	23.9219
1776	47.9219
1777	69.9219
1778	86.9219
1779	93.9219
1780	85.9219
1781	61.9219
1782	26.9219
1783	-20.0781
1784	-64.0781
1785	-90.0781
1786	-107.078
1787	-101.078
1788	-79.0781
1789	-41.0781
1790	7.92188
1791	46.9219
1792	72.9219
1793	81.9219
1794	70.9219
1795	46.9219
1796	15.9219
1797	-14.0781
1798	-32.0781
1799	-38.0781
1800	-34.0781
1801	-23.0781
1802	-5.07813
1803	9.92188
1804	19.9219
1805	22.9219
1806	18.9219
1807	10.9219
1808	-1.07813
1809	-19.0781
1810	-37.0781
1811	-58.0781
1812	-70.0781
1813	-66.0781
1814	-54.0781
1815	-26.0781
1816	17.9219
1817	60.9219
1818	96.9219
1819	118.922
1820	116.922
1821	86.9219
1822	42.9219
1823	-17.0781
1824	-71.0781
1825	-110.078
1826	-124.078
1827	-108.078
1828	-77.0781
1829	-33.0781
1830	13.9219
1831	56.9219
1832	78.9219
1833	82.9219
1834	71.9219
1835	53.9219
1836	22.9219
1837	-5.07813
1838	-29.0781
1839	-48.0781
1840	-53.0781
1841	-48.0781
1842	-28.0781
1843	0.921875
1844	36.9219
1845	62.9219
1846	72.9219
1847	70.9219
1848	51.9219
1849	13.9219
1850	-29.0781
1851	-70.0781
1852	-96.0781
1853	-98.0781
1854	-79.0781
1855	-46.0781
1856	-3.07813
1857	48.9219
1858	87.9219
1859	106.922
1860	105.922
1861	77.9219
1862	32.9219
1863	-22.0781
1864	-75.0781
1865	-118.078
1866	-139.078
1867	-134.078
1868	-109.078
1869	-65.0781
1870	-11.0781
1871	41.9219
1872	80.9219
1873	102.922
1874	109.922
1875	93.9219
1876	60.9219
1877	17.9219
1878	-19.0781
1879	-47.0781
1880	-59.0781
1881	-49.0781
1882	-26.0781
1883	9.92188
1884	48.9219
1885	83.9219
1886	96.9219
1887	84.9219
1888	52.9219
1889	3.92188
1890	-51.0781
1891	-105.078
1892	-140.078
1893	-157.078
1894	-143.078
1895	-102.078
1896	-39.0781
1897	29.9219
1898	84.9219
1899	134.922
1900	155.922
1901	148.922
1902	113.922
1903	62.9219
1904	1.92188
1905	-55.0781
1906	-95.0781
1907	-113.078
1908	-108.078
1909	-76.0781
1910	-32.0781
1911	11.9219
1912	52.9219
1913	72.9219
1914	68.9219
1915	46.9219
1916	9.92188
1917	-37.0781
1918	-82.0781
1919	-112.078
1920	-119.078
1921	-105.078
1922	-69.0781
1923	-12.0781
1924	46.9219
1925	105.922
1926	150.922
1927	168.922
1928	157.922
1929	116.922
1930	51.9219
1931	-21.0781
1932	-87.0781
1933	-135.078
1934	-146.078
1935	-123.078
1936	-74.0781
1937	-8.07813
1938	58.9219
1939	107.922
1940	129.922
1941	124.922
1942	84.9219
1943	24.9219
1944	-36.0781
1945	-90.0781
1946	-124.078
1947	-139.078
1948	-122.078
1949	-87.0781
1950	-37.0781
1951	20.9219
1952	65.9219
1953	99.9219
1954	108.922
1955	91.9219
1956	54.9219
1957	6.92188
1958	-52.0781
1959	-103.078
1960	-133.078
1961	-136.078
1962	-112.078
1963	-53.0781
1964	21.9219
1965	93.9219
1966	158.922
1967	191.922
1968	190.922
1969	154.922
1970	84.9219
1971	8.92188
1972	-65.0781
1973	-118.078
1974	-145.078
1975	-134.078
1976	-97.0781
1977	-42.0781
1978	21.9219
1979	81.9219
1980	130.922
1981	145.922
1982	134.922
1983	91.9219
1984	28.9219
1985	-47.0781
1986	-116.078
1987	-168.078
1988	-187.078
1989	-169.078
1990	-115.078
1991	-38.0781
1992	36.9219
1993	86.9219
1994	100.922
1995	71.9219
1996	15.9219
1997	-55.0781
1998	-119.078
1999	-160.078
2000	-167.078
2001	-135.078
2002	-78.0781
2003	-2.07813
2004	77.9219
2005	149.922
2006	203.922
2007	234.922
2008	236.922
2009	207.922
2010	154.922
2011	75.9219
2012	-12.0781
2013	-104.078
2014	-177.078
2015	-219.078
2016	-214.078
2017	-165.078
2018	-71.0781
2019	45.9219
2020	155.922
2021	234.922
2022	266.922
2023	248.922
2024	176.922
2025	85.9219
2026	-12.0781
2027	-87.0781
2028	-124.078
2029	-126.078
2030	-98.0781
2031	-64.0781
2032	-37.0781
2033	-31.0781
2034	-43.0781
2035	-77.0781
2036	-109.078
2037	-134.078
2038	-146.078
2039	-142.078
2040	-135.078
2041	-116.078
2042	-91.0781
2043	-58.0781
2044	-11.0781
2045	48.9219
2046	113.922
2047	165.922
2048	180.922
2049	136.922
2050	27.9219
2051	-128.078
2052	-299.078
2053	-441.078
2054	-512.078
2055	-491.078
2056	-367.078
2057	-162.078
2058	77.9219
2059	315.922
2060	509.922
2061	637.922
2062	705.922
2063	724.922
2064	709.922
2065	667.922
2066	596.922
2067	496.922
2068	378.922
2069	270.922
2070	202.922
2071	181.922
2072	190.922
2073	196.922
2074	170.922
2075	93.9219
2076	-38.0781
2077	-202.078
2078	-367.078
2079	-480.078
2080	-517.078
2081	-513.078
2082	-599.078
2083	-946.078
2084	-1653.08
2085	-2663.08
2086	-3749.08
2087	-4619.08
2088	-5004.08
2089	-4700.08
2090	-3509.08
2091	-1284.08
2092	1922.92
2093	5668.92
2094	9099.92
2095	11187.9
2096	11183.9
2097	9032.92
2098	5396.92
2099	1360.92
2100	-2102.08
2101	-4450.08
2102	-5607.08
2103	-5773.08
2104	-5215.08
2105	-4193.08
2106	-2957.08
2107	-1793.08
2108	-914.078
2109	-417.078
2110	-238.078
2111	-210.078
2112	-190.078
2113	-111.078
2114	17.9219
2115	156.922
2116	280.922
2117	354.922
2118	388.922
2119	389.922
2120	377.922
2121	382.922
2122	420.922
2123	496.922
2124	586.922
2125	661.922
2126	701.922
2127	712.922
2128	694.922
2129	645.922
2130	554.922
2131	410.922
2132	209.922
2133	-20.0781
2134	-251.078
2135	-439.078
2136	-554.078
2137	-572.078
2138	-494.078
2139	-342.078
2140	-162.078
2141	1.92188
2142	119.922
2143	170.922
2144	162.922
2145	105.922
2146	34.9219
2147	-34.0781
2148	-85.0781
2149	-123.078
2150	-146.078
2151	-159.078
2152	-160.078
2153	-150.078
2154	-124.078
2155	-95.0781
2156	-59.0781
2157	-27.0781
2158	-10.0781
2159	-9.07813
2160	-30.0781
2161	-58.0781
2162	-82.0781
2163	-81.0781
2164	-53.0781
2165	10.9219
2166	95.9219
2167	179.922
2168	241.922
2169	258.922
2170	231.922
2171	152.922
2172	48.9219
2173	-66.0781
2174	-159.078
2175	-212.078
2176	-217.078
2177	-172.078
2178	-102.078
2179	-7.07813
2180	92.9219
2181	172.922
2182	224.922
2183	247.922
2184	239.922
2185	195.922
2186	132.922
2187	55.9219
2188	-26.0781
2189	-103.078
2190	-160.078
2191	-192.078
2192	-186.078
2193	-143.078
2194	-75.0781
2195	-1.07813
2196	58.9219
2197	91.9219
2198	82.9219
2199	33.9219
2200	-30.0781
2201	-102.078
2202	-155.078
2203	-178.078
2204	-162.078
2205	-113.078
2206	-41.0781
2207	38.9219
2208	107.922
2209	148.922
2210	161.922
2211	137.922
2212	90.9219
2213	28.9219
2214	-35.0781
2215	-94.0781
2216	-132.078
2217	-137.078
2218	-110.078
2219	-59.0781
2220	10.9219
2221	86.9219
2222	151.922
2223	184.922
2224	187.922
2225	154.922
2226	95.9219
2227	16.9219
2228	-60.0781
2229	-117.078
2230	-145.078
2231	-141.078
2232	-110.078
2233	-58.0781
2234	0.921875
2235	53.9219
2236	91.9219
2237	107.922
2238	94.9219
2239	62.9219
2240	13.9219
2241	-39.0781
2242	-91.0781
2243	-127.078
2244	-136.078
2245	-126.078
2246	-92.0781
2247	-36.0781
2248	28.9219
2249	84.9219
2250	121.922
2251	135.922
2252	114.922
2253	66.9219
2254	1.92188
2255	-62.0781
2256	-114.078
2257	-142.078
2258	-131.078
2259	-86.0781
2260	-22.0781
2261	51.9219
2262	116.922
2263	155.922
2264	165.922
2265	145.922
2266	102.922
2267	39.9219
2268	-25.0781
2269	-77.0781
2270	-111.078
2271	-125.078
2272	-117.078
2273	-86.0781
2274	-42.0781
2275	7.92188
2276	47.9219
2277	75.9219
2278	76.9219
2279	58.9219
2280	20.9219
2281	-26.0781
2282	-72.0781
2283	-102.078
2284	-113.078
2285	-98.0781
2286	-59.0781
2287	-0.078125
2288	59.9219
2289	111.922
2290	144.922
2291	153.922
2292	131.922
2293	88.9219
2294	29.9219
2295	-33.0781
2296	-96.0781
2297	-137.078
2298	-158.078
2299	-146.078
2300	-105.078
2301	-50.0781
2302	11.9219
2303	57.9219
2304	89.9219
2305	105.922
2306	83.9219
2307	50.9219
2308	12.9219
2309	-26.0781
2310	-54.0781
2311	-59.0781
2312	-47.0781
2313	-21.0781
2314	19.9219
2315	58.9219
2316	96.9219
2317	113.922
2318	110.922
2319	83.9219
2320	37.9219
2321	-17.0781
2322	-70.0781
2323	-113.078
2324	-145.078
2325	-144.078
2326	-121.078
2327	-77.0781
2328	-22.0781
2329	32.9219
2330	76.9219
2331	106.922
2332	114.922
2333	93.9219
2334	58.9219
2335	10.9219
2336	-35.0781
2337	-69.0781
2338	-91.0781
2339	-89.0781
2340	-65.0781
2341	-29.0781
2342	16.9219
2343	49.9219
2344	69.9219
2345	72.9219
2346	56.9219
2347	33.9219
2348	2.92188
2349	-32.0781
2350	-55.0781
2351	-59.0781
2352	-50.0781
2353	-32.0781
2354	-7.07813
2355	24.9219
2356	52.9219
2357	74.9219
2358	84.9219
2359	76.9219
2360	53.9219
2361	16.9219
2362	-29.0781
2363	-75.0781
2364	-113.078
2365	-128.078
2366	-113.078
2367	-76.0781
2368	-22.0781
2369	35.9219
2370	86.9219
2371	120.922
2372	122.922
2373	102.922
2374	65.9219
2375	17.9219
2376	-24.0781
2377	-59.0781
2378	-71.0781
2379	-71.0781
2380	-60.0781
2381	-44.0781
2382	-25.0781
2383	-5.07813
2384	6.92188
2385	19.9219
2386	24.9219
2387	20.9219
2388	10.9219
2389	-3.07813
2390	-21.0781
2391	-32.0781
2392	-35.0781
2393	-25.0781
2394	-10.0781
2395	22.9219
2396	49.9219
2397	73.9219
2398	84.9219
2399	73.9219
2400	45.9219
2401	5.92188
2402	-37.0781
2403	-76.0781
2404	-101.078
2405	-108.078
2406	-95.0781
2407	-63.0781
2408	-19.0781
2409	27.9219
2410	64.9219
2411	89.9219
2412	101.922
2413	95.9219
2414	77.9219
2415	50.9219
2416	20.9219
2417	-7.07813
2418	-34.0781
2419	-49.0781
2420	-58.0781
2421	-56.0781
2422	-48.0781
2423	-30.0781
2424	-8.07813
2425	7.92188
2426	17.9219
2427	13.9219
2428	0.921875
2429	-20.0781
2430	-40.0781
2431	-51.0781
2432	-53.0781
2433	-40.0781
2434	-13.0781
2435	22.9219
2436	51.9219
2437	68.9219
2438	69.9219
2439	59.9219
2440	37.9219
2441	6.92188
2442	-22.0781
2443	-40.0781
2444	-49.0781
2445	-51.0781
2446	-38.0781
2447	-28.0781
2448	-14.0781
2449	8.92188
2450	21.9219
2451	40.9219
2452	54.9219
2453	58.9219
2454	51.9219
2455	38.9219
2456	12.9219
2457	-14.0781
2458	-39.0781
2459	-53.0781
2460	-57.0781
2461	-47.0781
2462	-27.0781
2463	-2.07813
2464	17.9219
2465	30.9219
2466	35.9219
2467	27.9219
2468	12.9219
2469	-2.07813
2470	-14.0781
2471	-17.0781
2472	-17.0781
2473	-11.0781
2474	-1.07813
2475	11.9219
2476	21.9219
2477	25.9219
2478	28.9219
2479	22.9219
2480	13.9219
2481	-2.07813
2482	-24.0781
2483	-39.0781
2484	-52.0781
2485	-58.0781
2486	-53.0781
2487	-39.0781
2488	-16.0781
2489	8.92188
2490	31.9219
2491	51.9219
2492	63.9219
2493	67.9219
2494	56.9219
2495	36.9219
2496	16.9219
2497	-4.07813
2498	-21.0781
2499	-30.0781
2500	-32.0781
2501	-27.0781
2502	-20.0781
2503	-7.07813
2504	-5.07813
2505	-5.07813
2506	-5.07813
2507	-7.07813
2508	-9.07813
2509	-8.07813
2510	-4.07813
2511	-1.07813
2512	7.92188
2513	14.9219
2514	14.9219
2515	14.9219
2516	14.9219
2517	13.9219
2518	12.9219
2519	16.9219
2520	9.92188
2521	2.92188
2522	-13.0781
2523	-31.0781
2524	-45.0781
2525	-51.0781
2526	-51.0781
2527	-36.0781
2528	-15.0781
2529	10.9219
2530	27.9219
2531	38.9219
2532	44.9219
2533	36.9219
2534	23.9219
2535	8.92188
2536	-5.07813
2537	-13.0781
2538	-18.0781
2539	-21.0781
2540	-17.0781
2541	-11.0781
2542	-9.07813
2543	-1.07813
2544	3.92188
2545	14.9219
2546	16.9219
2547	17.9219
2548	18.9219
2549	16.9219
2550	9.92188
2551	0.921875
2552	-2.07813
2553	-3.07813
2554	-2.07813
2555	4.92188
2556	9.92188
2557	11.9219
2558	7.92188
2559	-3.07813
2560	-12.0781
2561	-19.0781
2562	-26.0781
2563	-28.0781
2564	-25.0781
2565	-10.0781
2566	1.92188
2567	12.9219
2568	23.9219
2569	26.9219
2570	23.9219
2571	15.9219
2572	6.92188
2573	3.92188
2574	-8.07813
2575	-11.0781
2576	-15.0781
2577	-23.0781
2578	-29.0781
2579	-27.0781
2580	-20.0781
2581	-12.0781
2582	-2.07813
2583	2.92188
2584	13.9219
2585	20.9219
2586	21.9219
2587	22.9219
2588	18.9219
2589	10.9219
2590	1.92188
2591	-4.07813
2592	-3.07813
2593	-1.07813
2594	2.92188
2595	8.92188
2596	11.9219
2597	9.92188
2598	2.92188
2599	-5.07813
2600	-14.0781
2601	-26.0781
2602	-32.0781
2603	-26.0781
2604	-16.0781
2605	-6.07813
2606	10.9219
2607	19.9219
2608	28.9219
2609	27.9219
2610	24.9219
2611	21.9219
2612	12.9219
2613	0.921875
2614	-10.0781
2615	-21.0781
2616	-31.0781
2617	-37.0781
2618	-41.0781
2619	-34.0781
2620	-24.0781
2621	-6.07813
2622	10.9219
2623	18.9219
2624	18.9219
2625	20.9219
2626	12.9219
2627	3.92188
2628	-2.07813
2629	-2.07813
2630	0.921875
2631	8.92188
2632	13.9219
2633	17.9219
2634	19.9219
2635	13.9219
2636	7.92188
2637	-5.07813
2638	-9.07813
2639	-14.0781
2640	-20.0781
2641	-24.0781
2642	-23.0781
2643	-21.0781
2644	-18.0781
2645	-10.0781
2646	2.92188
2647	16.9219
2648	30.9219
2649	42.9219
2650	41.9219
2651	36.9219
2652	23.9219
2653	6.92188
2654	-13.0781
2655	-27.0781
2656	-33.0781
2657	-37.0781
2658	-33.0781
2659	-28.0781
2660	-17.0781
2661	-3.07813
2662	1.92188
2663	11.9219
2664	15.9219
2665	12.9219
2666	4.92188
2667	-1.07813
2668	-5.07813
2669	-10.0781
2670	-10.0781
2671	-8.07813
2672	3.92188
2673	9.92188
2674	14.9219
2675	21.9219
2676	24.9219
2677	17.9219
2678	1.92188
2679	-6.07813
2680	-21.0781
2681	-26.0781
2682	-31.0781
2683	-32.0781
2684	-32.0781
2685	-17.0781
2686	-3.07813
2687	12.9219
2688	29.9219
2689	41.9219
2690	45.9219
2691	39.9219
2692	27.9219
2693	13.9219
2694	-0.078125
2695	-12.0781
2696	-17.0781
2697	-19.0781
2698	-14.0781
2699	-4.07813
2700	3.92188
2701	8.92188
2702	11.9219
2703	9.92188
2704	5.92188
2705	-0.078125
2706	-6.07813
2707	-14.0781
2708	-22.0781
2709	-25.0781
2710	-26.0781
2711	-24.0781
2712	-13.0781
2713	-1.07813
2714	14.9219
2715	29.9219
2716	32.9219
2717	33.9219
2718	27.9219
2719	14.9219
2720	-2.07813
2721	-18.0781
2722	-33.0781
2723	-37.0781
2724	-38.0781
2725	-28.0781
2726	-19.0781
2727	-3.07813
2728	8.92188
2729	18.9219
2730	26.9219
2731	28.9219
2732	23.9219
2733	15.9219
2734	7.92188
2735	4.92188
2736	0.921875
2737	-0.078125
2738	-1.07813
2739	7.92188
2740	16.9219
2741	16.9219
2742	20.9219
2743	16.9219
2744	9.92188
2745	-4.07813
2746	-19.0781
2747	-30.0781
2748	-43.0781
2749	-48.0781
2750	-45.0781
2751	-31.0781
2752	-14.0781
2753	7.92188
2754	25.9219
2755	39.9219
2756	46.9219
2757	51.9219
2758	41.9219
2759	22.9219
2760	6.92188
2761	-11.0781
2762	-29.0781
2763	-45.0781
2764	-48.0781
2765	-44.0781
2766	-44.0781
2767	-30.0781
2768	-10.0781
2769	3.92188
2770	17.9219
2771	25.9219
2772	29.9219
2773	29.9219
2774	20.9219
2775	9.92188
2776	2.92188
2777	0.921875
2778	6.92188
2779	11.9219
2780	13.9219
2781	18.9219
2782	15.9219
2783	13.9219
2784	4.92188
2785	-9.07813
2786	-21.0781
2787	-30.0781
2788	-35.0781
2789	-32.0781
2790	-27.0781
2791	-21.0781
2792	-7.07813
2793	9.92188
2794	21.9219
2795	36.9219
2796	44.9219
2797	44.9219
2798	39.9219
2799	24.9219
2800	2.92188
2801	-19.0781
2802	-35.0781
2803	-45.0781
2804	-47.0781
2805	-38.0781
2806	-32.0781
2807	-15.0781
2808	1.92188
2809	16.9219
2810	25.9219
2811	21.9219
2812	19.9219
2813	12.9219
2814	1.92188
2815	-3.07813
2816	-9.07813
2817	-13.0781
2818	-13.0781
2819	-8.07813
2820	-0.078125
2821	8.92188
2822	15.9219
2823	18.9219
2824	20.9219
2825	21.9219
2826	11.9219
2827	0.921875
2828	-8.07813
2829	-17.0781
2830	-26.0781
2831	-20.0781
2832	-14.0781
2833	-4.07813
2834	6.92188
2835	14.9219
2836	21.9219
2837	20.9219
2838	20.9219
2839	9.92188
2840	-5.07813
2841	-19.0781
2842	-23.0781
2843	-21.0781
2844	-17.0781
2845	-8.07813
2846	3.92188
2847	12.9219
2848	19.9219
2849	27.9219
2850	23.9219
2851	17.9219
2852	9.92188
2853	-1.07813
2854	-12.0781
2855	-25.0781
2856	-33.0781
2857	-39.0781
2858	-35.0781
2859	-25.0781
2860	-9.07813
2861	1.92188
2862	13.9219
2863	25.9219
2864	34.9219
2865	29.9219
2866	19.9219
2867	12.9219
2868	1.92188
2869	-11.0781
2870	-17.0781
2871	-18.0781
2872	-16.0781
2873	-10.0781
2874	-2.07813
2875	4.92188
2876	9.92188
2877	9.92188
2878	9.92188
2879	3.92188
2880	-2.07813
2881	-7.07813
2882	-7.07813
2883	-11.0781
2884	-14.0781
2885	-7.07813
2886	3.92188
2887	11.9219
2888	19.9219
2889	28.9219
2890	28.9219
2891	26.9219
2892	17.9219
2893	4.92188
2894	-13.0781
2895	-27.0781
2896	-36.0781
2897	-38.0781
2898	-32.0781
2899	-20.0781
2900	-5.07813
2901	7.92188
2902	22.9219
2903	30.9219
2904	32.9219
2905	26.9219
2906	16.9219
2907	8.92188
2908	-4.07813
2909	-9.07813
2910	-14.0781
2911	-22.0781
2912	-25.0781
2913	-18.0781
2914	-13.0781
2915	-9.07813
2916	-6.07813
2917	-5.07813
2918	-1.07813
2919	1.92188
2920	-2.07813
2921	-3.07813
2922	-6.07813
2923	-9.07813
2924	-1.07813
2925	7.92188
2926	18.9219
2927	28.9219
2928	37.9219
2929	40.9219
2930	38.9219
2931	30.9219
2932	15.9219
2933	-1.07813
2934	-22.0781
2935	-36.0781
2936	-45.0781
2937	-51.0781
2938	-45.0781
2939	-34.0781
2940	-21.0781
2941	-3.07813
2942	12.9219
2943	26.9219
2944	34.9219
2945	35.9219
2946	29.9219
2947	20.9219
2948	11.9219
2949	2.92188
2950	-9.07813
2951	-19.0781
2952	-21.0781
2953	-18.0781
2954	-14.0781
2955	-11.0781
2956	-7.07813
2957	0.921875
2958	-1.07813
2959	-5.07813
2960	-10.0781
2961	-12.0781
2962	-14.0781
2963	-13.0781
2964	-9.07813
2965	-1.07813
2966	8.92188
2967	19.9219
2968	28.9219
2969	30.9219
2970	31.9219
2971	21.9219
2972	8.92188
2973	-0.078125
2974	-9.07813
2975	-16.0781
2976	-22.0781
2977	-24.0781
2978	-21.0781
2979	-14.0781
2980	-10.0781
2981	0.921875
2982	7.92188
2983	14.9219
2984	18.9219
2985	18.9219
2986	13.9219
2987	6.92188
2988	-2.07813
2989	-14.0781
2990	-21.0781
2991	-18.0781
2992	-15.0781
2993	-12.0781
2994	-2.07813
2995	7.92188
2996	15.9219
2997	18.9219
2998	13.9219
2999	7.92188
3000	-3.07813
3001	-10.0781
3002	-18.0781
3003	-23.0781
3004	-24.0781
3005	-21.0781
3006	-13.0781
3007	-1.07813
3008	8.92188
3009	18.9219
3010	25.9219
3011	22.9219
3012	20.9219
3013	12.9219
3014	2.92188
3015	-4.07813
3016	-11.0781
3017	-14.0781
3018	-13.0781
3019	-12.0781
3020	-7.07813
3021	-0.078125
3022	7.92188
3023	13.9219
3024	12.9219
3025	7.92188
3026	6.92188
3027	-1.07813
3028	-2.07813
3029	-11.0781
3030	-15.0781
3031	-11.0781
3032	-5.07813
3033	0.921875
3034	7.92188
3035	15.9219
3036	18.9219
3037	17.9219
3038	11.9219
3039	3.92188
3040	-6.07813
3041	-10.0781
3042	-17.0781
3043	-19.0781
3044	-20.0781
3045	-21.0781
3046	-13.0781
3047	-5.07813
3048	2.92188
3049	11.9219
3050	19.9219
3051	22.9219
3052	21.9219
3053	15.9219
3054	4.92188
3055	-1.07813
3056	-15.0781
3057	-17.0781
3058	-21.0781
3059	-17.0781
3060	-6.07813
3061	0.921875
3062	13.9219
3063	14.9219
3064	16.9219
3065	14.9219
3066	6.92188
3067	5.92188
3068	-5.07813
3069	-8.07813
3070	-10.0781
3071	-10.0781
3072	-12.0781
3073	-9.07813
3074	-1.07813
3075	2.92188
3076	10.9219
3077	13.9219
3078	17.9219
3079	14.9219
3080	12.9219
3081	3.92188
3082	-0.078125
3083	-10.0781
3084	-13.0781
3085	-7.07813
3086	-2.07813
3087	6.92188
3088	13.9219
3089	7.92188
3090	5.92188
3091	-0.078125
3092	-5.07813
3093	-10.0781
3094	-16.0781
3095	-21.0781
3096	-22.0781
3097	-22.0781
3098	-14.0781
3099	-9.07813
3100	-2.07813
3101	12.9219
3102	20.9219
3103	27.9219
3104	33.9219
3105	34.9219
3106	23.9219
3107	9.92188
3108	-3.07813
3109	-15.0781
3110	-23.0781
3111	-28.0781
3112	-27.0781
3113	-22.0781
3114	-12.0781
3115	-2.07813
3116	1.92188
3117	9.92188
3118	17.9219
3119	20.9219
3120	22.9219
3121	16.9219
3122	14.9219
3123	12.9219
3124	4.92188
3125	1.92188
3126	-2.07813
3127	-0.078125
3128	0.921875
3129	1.92188
3130	2.92188
3131	0.921875
3132	-4.07813
3133	-8.07813
3134	-13.0781
3135	-18.0781
3136	-18.0781
3137	-16.0781
3138	-9.07813
3139	-2.07813
3140	0.921875
3141	7.92188
3142	13.9219
3143	15.9219
3144	10.9219
3145	5.92188
3146	-0.078125
3147	-4.07813
3148	-11.0781
3149	-21.0781
3150	-22.0781
3151	-21.0781
3152	-17.0781
3153	-6.07813
3154	4.92188
3155	15.9219
3156	26.9219
3157	33.9219
3158	30.9219
3159	24.9219
3160	14.9219
3161	6.92188
3162	-4.07813
3163	-13.0781
3164	-17.0781
3165	-17.0781
3166	-16.0781
3167	-19.0781
3168	-15.0781
3169	-5.07813
3170	5.92188
3171	10.9219
3172	13.9219
3173	20.9219
3174	15.9219
3175	9.92188
3176	6.92188
3177	1.92188
3178	-4.07813
3179	-4.07813
3180	-4.07813
3181	-3.07813
3182	-3.07813
3183	-9.07813
3184	-8.07813
3185	-12.0781
3186	-18.0781
3187	-19.0781
3188	-22.0781
3189	-17.0781
3190	-17.0781
3191	-9.07813
3192	-3.07813
3193	7.92188
3194	19.9219
3195	22.9219
3196	25.9219
3197	27.9219
3198	25.9219
3199	18.9219
3200	8.92188
3201	-5.07813
3202	-18.0781
3203	-29.0781
3204	-36.0781
3205	-31.0781
3206	-25.0781
3207	-14.0781
3208	-1.07813
3209	8.92188
3210	22.9219
3211	29.9219
3212	33.9219
3213	35.9219
3214	34.9219
3215	31.9219
3216	29.9219
3217	22.9219
3218	15.9219
3219	10.9219
3220	6.92188
3221	0.921875
3222	-2.07813
3223	-3.07813
3224	-6.07813
3225	-13.0781
3226	-20.0781
3227	-26.0781
3228	-29.0781
3229	-32.0781
3230	-41.0781
3231	-46.0781
3232	-55.0781
3233	-66.0781
3234	-77.0781
3235	-88.0781
3236	-91.0781
3237	-78.0781
3238	-52.0781
3239	-9.07813
3240	46.9219
3241	114.922
3242	167.922
3243	210.922
3244	224.922
3245	197.922
3246	139.922
3247	62.9219
3248	-13.0781
3249	-70.0781
3250	-105.078
3251	-121.078
3252	-118.078
3253	-101.078
3254	-85.0781
3255	-59.0781
3256	-38.0781
3257	-22.0781
3258	-14.0781
3259	-6.07813
3260	-3.07813
3261	1.92188
3262	4.92188
3263	8.92188
3264	14.9219
3265	13.9219
3266	11.9219
3267	9.92188
3268	5.92188
3269	1.92188
3270	0.921875
3271	-3.07813
3272	6.92188
3273	8.92188
3274	11.9219
3275	13.9219
3276	15.9219
3277	18.9219
3278	16.9219
3279	14.9219
3280	9.92188
3281	2.92188
3282	-11.0781
3283	-18.0781
3284	-21.0781
3285	-22.0781
3286	-18.0781
3287	-7.07813
3288	-2.07813
3289	6.92188
3290	7.92188
3291	9.92188
3292	10.9219
3293	4.92188
3294	4.92188
3295	0.921875
3296	-6.07813
3297	-9.07813
3298	-7.07813
3299	-11.0781
3300	-8.07813
3301	-4.07813
3302	-0.078125
3303	2.92188
3304	9.92188
3305	9.92188
3306	8.92188
3307	5.92188
3308	0.921875
3309	-3.07813
3310	-5.07813
3311	-5.07813
3312	-5.07813
3313	-5.07813
3314	-0.078125
3315	-0.078125
3316	6.92188
3317	7.92188
3318	6.92188
3319	6.92188
3320	5.92188
3321	2.92188
3322	-3.07813
3323	-10.0781
3324	-13.0781
3325	-18.0781
3326	-17.0781
3327	-12.0781
3328	-9.07813
3329	-3.07813
3330	4.92188
3331	8.92188
3332	11.9219
3333	10.9219
3334	9.92188
3335	10.9219
3336	10.9219
3337	1.92188
3338	-2.07813
3339	-2.07813
3340	-7.07813
3341	-11.0781
3342	-12.0781
3343	-11.0781
3344	-9.07813
3345	-8.07813
3346	-5.07813
3347	-4.07813
3348	-4.07813
3349	-3.07813
3350	-0.078125
3351	1.92188
3352	3.92188
3353	12.9219
3354	16.9219
3355	18.9219
3356	20.9219
3357	16.9219
3358	8.92188
3359	4.92188
3360	-3.07813
3361	-11.0781
3362	-16.0781
3363	-14.0781
3364	-21.0781
3365	-19.0781
3366	-17.0781
3367	-10.0781
3368	-0.078125
3369	1.92188
3370	13.9219
3371	18.9219
3372	20.9219
3373	21.9219
3374	16.9219
3375	6.92188
3376	-4.07813
3377	-13.0781
3378	-22.0781
3379	-22.0781
3380	-22.0781
3381	-20.0781
3382	-15.0781
3383	-6.07813
3384	0.921875
3385	7.92188
3386	14.9219
3387	20.9219
3388	17.9219
3389	19.9219
3390	15.9219
3391	5.92188
3392	-4.07813
3393	-9.07813
3394	-12.0781
3395	-16.0781
3396	-14.0781
3397	-15.0781
3398	-9.07813
3399	-0.078125
3400	3.92188
3401	5.92188
3402	10.9219
3403	14.9219
3404	19.9219
3405	15.9219
3406	14.9219
3407	19.9219
3408	17.9219
3409	12.9219
3410	4.92188
3411	-3.07813
3412	-8.07813
3413	-10.0781
3414	-17.0781
3415	-24.0781
3416	-26.0781
3417	-27.0781
3418	-21.0781
3419	-14.0781
3420	-6.07813
3421	4.92188
3422	16.9219
3423	23.9219
3424	26.9219
3425	24.9219
3426	21.9219
3427	15.9219
3428	6.92188
3429	-1.07813
3430	-13.0781
3431	-19.0781
3432	-25.0781
3433	-27.0781
3434	-26.0781
3435	-23.0781
3436	-12.0781
3437	-7.07813
3438	0.921875
3439	12.9219
3440	18.9219
3441	22.9219
3442	25.9219
3443	24.9219
3444	16.9219
3445	11.9219
3446	5.92188
3447	-1.07813
3448	-5.07813
3449	-8.07813
3450	-7.07813
3451	-8.07813
3452	-7.07813
3453	-3.07813
3454	-5.07813
3455	-1.07813
3456	-1.07813
3457	-0.078125
3458	1.92188
3459	4.92188
3460	3.92188
3461	2.92188
3462	4.92188
3463	4.92188
3464	4.92188
3465	5.92188
3466	3.92188
3467	3.92188
3468	0.921875
3469	-4.07813
3470	-9.07813
3471	-11.0781
3472	-16.0781
3473	-18.0781
3474	-14.0781
3475	-9.07813
3476	-3.07813
3477	-1.07813
3478	3.92188
3479	9.92188
3480	11.9219
3481	10.9219
3482	10.9219
3483	10.9219
3484	8.92188
3485	4.92188
3486	0.921875
3487	-2.07813
3488	-6.07813
3489	-11.0781
3490	-9.07813
3491	-9.07813
3492	-7.07813
3493	-3.07813
3494	-2.07813
3495	-2.07813
3496	0.921875
3497	-0.078125
3498	3.92188
3499	5.92188
3500	6.92188
3501	9.92188
3502	10.9219
3503	11.9219
3504	10.9219
3505	7.92188
3506	2.92188
3507	-0.078125
3508	-5.07813
3509	-6.07813
3510	-10.0781
3511	-17.0781
3512	-19.0781
3513	-26.0781
3514	-23.0781
3515	-19.0781
3516	-12.0781
3517	-4.07813
3518	8.92188
3519	14.9219
3520	20.9219
3521	22.9219
3522	18.9219
3523	17.9219
3524	11.9219
3525	6.92188
3526	-1.07813
3527	-9.07813
3528	-14.0781
3529	-20.0781
3530	-26.0781
3531	-26.0781
3532	-21.0781
3533	-18.0781
3534	-10.0781
3535	-2.07813
3536	4.92188
3537	10.9219
3538	17.9219
3539	16.9219
3540	18.9219
3541	21.9219
3542	15.9219
3543	13.9219
3544	10.9219
3545	8.92188
3546	3.92188
3547	-2.07813
3548	-7.07813
3549	-11.0781
3550	-15.0781
3551	-16.0781
3552	-17.0781
3553	-15.0781
3554	-5.07813
3555	-1.07813
3556	1.92188
3557	2.92188
3558	10.9219
3559	15.9219
3560	18.9219
3561	21.9219
3562	21.9219
3563	20.9219
3564	16.9219
3565	2.92188
3566	-10.0781
3567	-16.0781
3568	-25.0781
3569	-28.0781
3570	-23.0781
3571	-20.0781
3572	-14.0781
3573	-8.07813
3574	-4.07813
3575	-3.07813
3576	1.92188
3577	7.92188
3578	9.92188
3579	15.9219
3580	14.9219
3581	13.9219
3582	13.9219
3583	5.92188
3584	-1.07813
3585	-3.07813
3586	-6.07813
3587	-7.07813
3588	-0.078125
3589	0.921875
3590	2.92188
3591	-1.07813
3592	-7.07813
3593	-10.0781
3594	-10.0781
3595	-10.0781
3596	-4.07813
3597	0.921875
3598	8.92188
3599	8.92188
3600	7.92188
3601	8.92188
3602	0.921875
3603	2.92188
3604	5.92188
3605	6.92188
3606	8.92188
3607	4.92188
3608	-0.078125
3609	-7.07813
3610	-9.07813
3611	-11.0781
3612	-13.0781
3613	-11.0781
3614	-4.07813
3615	-0.078125
3616	0.921875
3617	-2.07813
3618	-2.07813
3619	-8.07813
3620	-10.0781
3621	-7.07813
3622	-1.07813
3623	4.92188
3624	10.9219
3625	10.9219
3626	14.9219
3627	16.9219
3628	15.9219
3629	13.9219
3630	14.9219
3631	12.9219
3632	8.92188
3633	1.92188
3634	-6.07813
3635	-17.0781
3636	-25.0781
3637	-25.0781
3638	-25.0781
3639	-17.0781
3640	-7.07813
3641	1.92188
3642	8.92188
3643	12.9219
3644	12.9219
3645	17.9219
3646	20.9219
3647	21.9219
3648	22.9219
3649	19.9219
3650	16.9219
3651	11.9219
3652	5.92188
3653	-0.078125
3654	-9.07813
3655	-20.0781
3656	-20.0781
3657	-22.0781
3658	-20.0781
3659	-22.0781
3660	-21.0781
3661	-21.0781
3662	-19.0781
3663	-13.0781
3664	-5.07813
3665	2.92188
3666	11.9219
3667	21.9219
3668	30.9219
3669	33.9219
3670	32.9219
3671	28.9219
3672	18.9219
3673	7.92188
3674	-0.078125
3675	-7.07813
3676	-15.0781
3677	-25.0781
3678	-33.0781
3679	-39.0781
3680	-36.0781
3681	-29.0781
3682	-24.0781
3683	-12.0781
3684	3.92188
3685	13.9219
3686	19.9219
3687	26.9219
3688	28.9219
3689	30.9219
3690	30.9219
3691	27.9219
3692	25.9219
3693	23.9219
3694	14.9219
3695	-0.078125
3696	-14.0781
3697	-20.0781
3698	-31.0781
3699	-37.0781
3700	-42.0781
3701	-41.0781
3702	-36.0781
3703	-27.0781
3704	-15.0781
3705	-4.07813
3706	12.9219
3707	25.9219
3708	33.9219
3709	38.9219
3710	43.9219
3711	38.9219
3712	31.9219
3713	18.9219
3714	3.92188
3715	-13.0781
3716	-26.0781
3717	-35.0781
3718	-39.0781
3719	-40.0781
3720	-37.0781
3721	-29.0781
3722	-21.0781
3723	-5.07813
3724	3.92188
3725	16.9219
3726	24.9219
3727	31.9219
3728	37.9219
3729	32.9219
3730	23.9219
3731	15.9219
3732	10.9219
3733	2.92188
3734	-5.07813
3735	-13.0781
3736	-18.0781
3737	-22.0781
3738	-22.0781
3739	-22.0781
3740	-21.0781
3741	-12.0781
3742	-1.07813
3743	3.92188
3744	12.9219
3745	16.9219
3746	19.9219
3747	18.9219
3748	20.9219
3749	16.9219
3750	11.9219
3751	3.92188
3752	-3.07813
3753	-14.0781
3754	-20.0781
3755	-22.0781
3756	-25.0781
3757	-24.0781
3758	-21.0781
3759	-12.0781
3760	-3.07813
3761	9.92188
3762	23.9219
3763	24.9219
3764	25.9219
3765	27.9219
3766	20.9219
3767	7.92188
3768	-1.07813
3769	-5.07813
3770	-10.0781
3771	-21.0781
3772	-26.0781
3773	-27.0781
3774	-25.0781
3775	-19.0781
3776	-3.07813
3777	6.92188
3778	13.9219
3779	16.9219
3780	22.9219
3781	26.9219
3782	22.9219
3783	18.9219
3784	15.9219
3785	7.92188
3786	4.92188
3787	-1.07813
3788	-6.07813
3789	-9.07813
3790	-12.0781
3791	-12.0781
3792	-16.0781
3793	-16.0781
3794	-9.07813
3795	-7.07813
3796	-1.07813
3797	2.92188
3798	4.92188
3799	3.92188
3800	5.92188
3801	2.92188
3802	5.92188
3803	4.92188
3804	3.92188
3805	0.921875
3806	-1.07813
3807	-4.07813
3808	-4.07813
3809	-7.07813
3810	-7.07813
3811	-7.07813
3812	-2.07813
3813	2.92188
3814	5.92188
3815	3.92188
3816	1.92188
3817	0.921875
3818	-3.07813
3819	-3.07813
3820	-5.07813
3821	-11.0781
3822	-11.0781
3823	-11.0781
3824	-10.0781
3825	-6.07813
3826	-0.078125
3827	10.9219
3828	19.9219
3829	25.9219
3830	30.9219
3831	32.9219
3832	26.9219
3833	19.9219
3834	7.92188
3835	-1.07813
3836	-12.0781
3837	-22.0781
3838	-31.0781
3839	-36.0781
3840	-38.0781
3841	-38.0781
3842	-33.0781
3843	-20.0781
3844	-6.07813
3845	6.92188
3846	26.9219
3847	34.9219
3848	39.9219
3849	38.9219
3850	35.9219
3851	31.9219
3852	20.9219
3853	10.9219
3854	1.92188
3855	-10.0781
3856	-21.0781
3857	-35.0781
3858	-44.0781
3859	-53.0781
3860	-56.0781
3861	-50.0781
3862	-37.0781
3863	-20.0781
3864	-2.07813
3865	14.9219
3866	28.9219
3867	39.9219
3868	52.9219
3869	59.9219
3870	56.9219
3871	54.9219
3872	43.9219
3873	29.9219
3874	5.92188
3875	-19.0781
3876	-39.0781
3877	-53.0781
3878	-64.0781
3879	-62.0781
3880	-55.0781
3881	-43.0781
3882	-28.0781
3883	-14.0781
3884	6.92188
3885	24.9219
3886	41.9219
3887	52.9219
3888	58.9219
3889	60.9219
3890	50.9219
3891	39.9219
3892	20.9219
3893	4.92188
3894	-11.0781
3895	-26.0781
3896	-37.0781
3897	-47.0781
3898	-47.0781
3899	-53.0781
3900	-53.0781
3901	-43.0781
3902	-30.0781
3903	-15.0781
3904	-0.078125
3905	16.9219
3906	33.9219
3907	46.9219
3908	49.9219
3909	51.9219
3910	50.9219
3911	44.9219
3912	31.9219
3913	17.9219
3914	0.921875
3915	-18.0781
3916	-36.0781
3917	-44.0781
3918	-49.0781
3919	-49.0781
3920	-43.0781
3921	-30.0781
3922	-17.0781
3923	-6.07813
3924	7.92188
3925	19.9219
3926	30.9219
3927	42.9219
3928	43.9219
3929	39.9219
3930	30.9219
3931	20.9219
3932	5.92188
3933	-6.07813
3934	-13.0781
3935	-16.0781
3936	-17.0781
3937	-25.0781
3938	-26.0781
3939	-23.0781
3940	-22.0781
3941	-22.0781
3942	-17.0781
3943	-12.0781
3944	-4.07813
3945	3.92188
3946	8.92188
3947	8.92188
3948	11.9219
3949	12.9219
3950	11.9219
3951	14.9219
3952	16.9219
3953	15.9219
3954	10.9219
3955	2.92188
3956	-5.07813
3957	-11.0781
3958	-15.0781
3959	-12.0781
3960	-7.07813
3961	-5.07813
3962	0.921875
3963	-0.078125
3964	1.92188
3965	-3.07813
3966	-5.07813
3967	-3.07813
3968	-6.07813
3969	-1.07813
3970	3.92188
3971	4.92188
3972	0.921875
3973	3.92188
3974	6.92188
3975	10.9219
3976	13.9219
3977	19.9219
3978	24.9219
3979	26.9219
3980	22.9219
3981	11.9219
3982	-1.07813
3983	-13.0781
3984	-22.0781
3985	-28.0781
3986	-29.0781
3987	-28.0781
3988	-31.0781
3989	-33.0781
3990	-20.0781
3991	-13.0781
3992	-4.07813
3993	8.92188
3994	18.9219
3995	28.9219
3996	30.9219
3997	32.9219
3998	31.9219
3999	27.9219
4000	16.9219
4001	7.92188
4002	1.92188
4003	-5.07813
4004	-17.0781
4005	-29.0781
4006	-38.0781
4007	-44.0781
4008	-43.0781
4009	-39.0781
4010	-32.0781
4011	-17.0781
4012	-9.07813
4013	5.92188
4014	19.9219
4015	32.9219
4016	41.9219
4017	52.9219
4018	55.9219
4019	54.9219
4020	46.9219
4021	29.9219
4022	9.92188
4023	-12.0781
4024	-31.0781
4025	-44.0781
4026	-53.0781
4027	-60.0781
4028	-63.0781
4029	-56.0781
4030	-39.0781
4031	-22.0781
4032	-3.07813
4033	13.9219
4034	34.9219
4035	46.9219
4036	53.9219
4037	56.9219
4038	49.9219
4039	44.9219
4040	30.9219
4041	17.9219
4042	-2.07813
4043	-18.0781
4044	-35.0781
4045	-47.0781
4046	-54.0781
4047	-58.0781
4048	-55.0781
4049	-49.0781
4050	-39.0781
4051	-16.0781
4052	-1.07813
4053	19.9219
4054	37.9219
4055	46.9219
4056	52.9219
4057	56.9219
4058	58.9219
4059	50.9219
4060	38.9219
4061	17.9219
4062	-3.07813
4063	-25.0781
4064	-43.0781
4065	-56.0781
4066	-61.0781
4067	-59.0781
4068	-54.0781
4069	-37.0781
4070	-20.0781
4071	-3.07813
4072	20.9219
4073	36.9219
4074	49.9219
4075	58.9219
4076	57.9219
4077	52.9219
4078	41.9219
4079	22.9219
4080	2.92188
4081	-17.0781
4082	-33.0781
4083	-44.0781
4084	-48.0781
4085	-47.0781
4086	-43.0781
4087	-38.0781
4088	-34.0781
4089	-18.0781
4090	-9.07813
4091	5.92188
4092	25.9219
4093	34.9219
4094	42.9219
4095	46.9219
4096	45.9219
4097	35.9219
4098	22.9219
4099	13.9219
4100	1.92188
4101	-12.0781
4102	-22.0781
4103	-33.0781
4104	-42.0781
4105	-42.0781
4106	-40.0781
4107	-29.0781
4108	-18.0781
4109	-2.07813
4110	12.9219
4111	25.9219
4112	37.9219
4113	45.9219
4114	45.9219
4115	40.9219
4116	27.9219
4117	15.9219
4118	6.92188
4119	-6.07813
4120	-17.0781
4121	-28.0781
4122	-36.0781
4123	-32.0781
4124	-29.0781
4125	-22.0781
4126	-15.0781
4127	-5.07813
4128	6.92188
4129	16.9219
4130	22.9219
4131	26.9219
4132	21.9219
4133	18.9219
4134	13.9219
4135	8.92188
4136	4.92188
4137	-2.07813
4138	-7.07813
4139	-11.0781
4140	-14.0781
4141	-15.0781
4142	-18.0781
4143	-21.0781
4144	-14.0781
4145	-10.0781
4146	-1.07813
4147	4.92188
4148	11.9219
4149	17.9219
4150	17.9219
4151	21.9219
4152	19.9219
4153	17.9219
4154	12.9219
4155	7.92188
4156	-0.078125
4157	-6.07813
4158	-12.0781
4159	-14.0781
4160	-15.0781
4161	-17.0781
4162	-12.0781
4163	-7.07813
4164	-1.07813
4165	7.92188
4166	14.9219
4167	16.9219
4168	18.9219
4169	16.9219
4170	10.9219
4171	6.92188
4172	5.92188
4173	1.92188
4174	-4.07813
4175	-10.0781
4176	-14.0781
4177	-14.0781
4178	-16.0781
4179	-12.0781
4180	-4.07813
4181	-0.078125
4182	1.92188
4183	4.92188
4184	4.92188
4185	5.92188
4186	4.92188
4187	5.92188
4188	5.92188
4189	5.92188
4190	6.92188
4191	9.92188
4192	4.92188
4193	-2.07813
4194	-6.07813
4195	-7.07813
4196	-11.0781
4197	-8.07813
4198	-8.07813
4199	-5.07813
4200	-3.07813
4201	-3.07813
4202	-3.07813
4203	1.92188
4204	5.92188
4205	12.9219
4206	16.9219
4207	18.9219
4208	17.9219
4209	13.9219
4210	9.92188
4211	0.921875
4212	-5.07813
4213	-12.0781
4214	-13.0781
4215	-13.0781
4216	-12.0781
4217	-10.0781
4218	-7.07813
4219	-5.07813
4220	-2.07813
4221	2.92188
4222	8.92188
4223	10.9219
4224	14.9219
4225	15.9219
4226	9.92188
4227	5.92188
4228	2.92188
4229	-4.07813
4230	-11.0781
4231	-9.07813
4232	-9.07813
4233	-5.07813
4234	-9.07813
4235	-9.07813
4236	-12.0781
4237	-9.07813
4238	-10.0781
4239	-10.0781
4240	-4.07813
4241	0.921875
4242	3.92188
4243	7.92188
4244	9.92188
4245	9.92188
4246	12.9219
4247	9.92188
4248	9.92188
4249	10.9219
4250	6.92188
4251	-0.078125
4252	-5.07813
4253	-9.07813
4254	-11.0781
4255	-13.0781
4256	-8.07813
4257	-7.07813
4258	-1.07813
4259	-0.078125
4260	6.92188
4261	11.9219
4262	10.9219
4263	11.9219
4264	8.92188
4265	7.92188
4266	4.92188
4267	2.92188
4268	-2.07813
4269	-10.0781
4270	-10.0781
4271	-8.07813
4272	-4.07813
4273	-8.07813
4274	-4.07813
4275	-1.07813
4276	3.92188
4277	5.92188
4278	4.92188
4279	4.92188
4280	-0.078125
4281	-0.078125
4282	-1.07813
4283	-1.07813
4284	-5.07813
4285	-5.07813
4286	-6.07813
4287	-5.07813
4288	-5.07813
4289	-2.07813
4290	-2.07813
4291	-5.07813
4292	-3.07813
4293	4.92188
4294	8.92188
4295	11.9219
4296	14.9219
4297	14.9219
4298	14.9219
4299	10.9219
4300	9.92188
4301	5.92188
4302	3.92188
4303	-5.07813
4304	-6.07813
4305	-10.0781
4306	-17.0781
4307	-14.0781
4308	-14.0781
4309	-10.0781
4310	-5.07813
4311	-1.07813
4312	7.92188
4313	11.9219
4314	17.9219
4315	17.9219
4316	17.9219
4317	18.9219
4318	9.92188
4319	6.92188
4320	0.921875
4321	-8.07813
4322	-14.0781
4323	-19.0781
4324	-22.0781
4325	-21.0781
4326	-17.0781
4327	-12.0781
4328	-8.07813
4329	-4.07813
4330	-1.07813
4331	3.92188
4332	13.9219
4333	11.9219
4334	15.9219
4335	11.9219
4336	12.9219
4337	9.92188
4338	8.92188
4339	5.92188
4340	-0.078125
4341	-1.07813
4342	-5.07813
4343	-9.07813
4344	-8.07813
4345	-9.07813
4346	-11.0781
4347	-9.07813
4348	-6.07813
4349	-4.07813
4350	1.92188
4351	4.92188
4352	9.92188
4353	13.9219
4354	16.9219
4355	15.9219
4356	9.92188
4357	12.9219
4358	7.92188
4359	1.92188
4360	-3.07813
4361	-7.07813
4362	-10.0781
4363	-9.07813
4364	-7.07813
4365	-6.07813
4366	-4.07813
4367	-4.07813
4368	-2.07813
4369	-1.07813
4370	0.921875
4371	2.92188
4372	1.92188
4373	-2.07813
4374	-2.07813
4375	-6.07813
4376	-3.07813
4377	-0.078125
4378	1.92188
4379	-0.078125
4380	-1.07813
4381	1.92188
4382	5.92188
4383	5.92188
4384	1.92188
4385	-2.07813
4386	0.921875
4387	-4.07813
4388	-5.07813
4389	-9.07813
4390	-8.07813
4391	-6.07813
4392	-6.07813
4393	-5.07813
4394	-2.07813
4395	-1.07813
4396	1.92188
4397	1.92188
4398	5.92188
4399	7.92188
4400	8.92188
4401	6.92188
4402	4.92188
4403	8.92188
4404	7.92188
4405	3.92188
4406	0.921875
4407	-5.07813
4408	-7.07813
4409	-11.0781
4410	-10.0781
4411	-12.0781
4412	-12.0781
4413	-12.0781
4414	-11.0781
4415	-11.0781
4416	-6.07813
4417	-3.07813
4418	2.92188
4419	10.9219
4420	13.9219
4421	12.9219
4422	11.9219
4423	9.92188
4424	5.92188
4425	-0.078125
4426	-5.07813
4427	-7.07813
4428	-11.0781
4429	-13.0781
4430	-13.0781
4431	-14.0781
4432	-10.0781
4433	-10.0781
4434	-6.07813
4435	0.921875
4436	7.92188
4437	10.9219
4438	16.9219
4439	10.9219
4440	8.92188
4441	9.92188
4442	4.92188
4443	2.92188
4444	-1.07813
4445	-4.07813
4446	-4.07813
4447	-3.07813
4448	-1.07813
4449	-3.07813
4450	-4.07813
4451	-3.07813
4452	-0.078125
4453	3.92188
4454	1.92188
4455	2.92188
4456	5.92188
4457	2.92188
4458	-0.078125
4459	-1.07813
4460	-6.07813
4461	-3.07813
4462	-2.07813
4463	-6.07813
4464	-3.07813
4465	-4.07813
4466	-4.07813
4467	-4.07813
4468	-4.07813
4469	-4.07813
4470	-3.07813
4471	2.92188
4472	3.92188
4473	5.92188
4474	7.92188
4475	9.92188
4476	5.92188
4477	3.92188
4478	0.921875
4479	-1.07813
4480	-3.07813
4481	-5.07813
4482	-7.07813
4483	-8.07813
4484	-5.07813
4485	-3.07813
4486	-3.07813
4487	2.92188
4488	4.92188
4489	12.9219
4490	13.9219
4491	10.9219
4492	10.9219
4493	8.92188
4494	6.92188
4495	4.92188
4496	4.92188
4497	-4.07813
4498	-9.07813
4499	-3.07813
4500	0.921875
4501	-4.07813
4502	-2.07813
4503	-0.078125
4504	-3.07813
4505	0.921875
4506	-0.078125
4507	1.92188
4508	0.921875
4509	2.92188
4510	-1.07813
4511	-6.07813
4512	-6.07813
4513	-2.07813
4514	-5.07813
4515	-3.07813
4516	-0.078125
4517	1.92188
4518	4.92188
4519	2.92188
4520	4.92188
4521	5.92188
4522	1.92188
4523	-1.07813
4524	-5.07813
4525	-6.07813
4526	-5.07813
4527	-3.07813
4528	-0.078125
4529	-0.078125
4530	-2.07813
4531	-1.07813
4532	-0.078125
4533	-1.07813
4534	0.921875
4535	3.92188
4536	5.92188
4537	5.92188
4538	6.92188
4539	6.92188
4540	7.92188
4541	7.92188
4542	7.92188
4543	8.92188
4544	6.92188
4545	4.92188
4546	-1.07813
4547	-6.07813
4548	-9.07813
4549	-12.0781
4550	-13.0781
4551	-14.0781
4552	-12.0781
4553	-10.0781
4554	1.92188
4555	-1.07813
4556	0.921875
4557	3.92188
4558	6.92188
4559	14.9219
4560	13.9219
4561	10.9219
4562	8.92188
4563	3.92188
4564	-5.07813
4565	-9.07813
4566	-10.0781
4567	-12.0781
4568	-13.0781
4569	-10.0781
4570	-7.07813
4571	-8.07813
4572	-9.07813
4573	-1.07813
4574	-0.078125
4575	3.92188
4576	7.92188
4577	8.92188
4578	14.9219
4579	10.9219
4580	11.9219
4581	11.9219
4582	8.92188
4583	6.92188
4584	5.92188
4585	2.92188
4586	-2.07813
4587	-5.07813
4588	-8.07813
4589	-9.07813
4590	-15.0781
4591	-16.0781
4592	-16.0781
4593	-10.0781
4594	-2.07813
4595	1.92188
4596	8.92188
4597	10.9219
4598	9.92188
4599	12.9219
4600	12.9219
4601	11.9219
4602	10.9219
4603	8.92188
4604	3.92188
4605	-3.07813
4606	-9.07813
4607	-12.0781
4608	-14.0781
4609	-15.0781
4610	-16.0781
4611	-13.0781
4612	-14.0781
4613	-13.0781
4614	-9.07813
4615	-5.07813
4616	-3.07813
4617	6.92188
4618	10.9219
4619	18.9219
4620	22.9219
4621	20.9219
4622	20.9219
4623	19.9219
4624	14.9219
4625	8.92188
4626	1.92188
4627	-6.07813
4628	-15.0781
4629	-20.0781
4630	-24.0781
4631	-26.0781
4632	-24.0781
4633	-21.0781
4634	-14.0781
4635	-3.07813
4636	6.92188
4637	16.9219
4638	22.9219
4639	29.9219
4640	30.9219
4641	28.9219
4642	26.9219
4643	20.9219
4644	3.92188
4645	-2.07813
4646	-12.0781
4647	-18.0781
4648	-23.0781
4649	-24.0781
4650	-24.0781
4651	-23.0781
4652	-19.0781
4653	-13.0781
4654	-5.07813
4655	0.921875
4656	7.92188
4657	11.9219
4658	14.9219
4659	17.9219
4660	14.9219
4661	14.9219
4662	12.9219
4663	7.92188
4664	4.92188
4665	-1.07813
4666	-2.07813
4667	-3.07813
4668	-9.07813
4669	-11.0781
4670	-9.07813
4671	-11.0781
4672	-7.07813
4673	-1.07813
4674	-0.078125
4675	1.92188
4676	4.92188
4677	8.92188
4678	6.92188
4679	8.92188
4680	5.92188
4681	0.921875
4682	-2.07813
4683	-6.07813
4684	-5.07813
4685	-3.07813
4686	-0.078125
4687	1.92188
4688	5.92188
4689	9.92188
4690	17.9219
4691	15.9219
4692	12.9219
4693	6.92188
4694	-1.07813
4695	-5.07813
4696	-11.0781
4697	-17.0781
4698	-17.0781
4699	-18.0781
4700	-23.0781
4701	-18.0781
4702	-15.0781
4703	-10.0781
4704	1.92188
4705	10.9219
4706	19.9219
4707	24.9219
4708	25.9219
4709	22.9219
4710	18.9219
4711	16.9219
4712	7.92188
4713	-2.07813
4714	-4.07813
4715	-13.0781
4716	-15.0781
4717	-22.0781
4718	-27.0781
4719	-25.0781
4720	-21.0781
4721	-14.0781
4722	-6.07813
4723	2.92188
4724	8.92188
4725	12.9219
4726	20.9219
4727	20.9219
4728	23.9219
4729	27.9219
4730	25.9219
4731	22.9219
4732	16.9219
4733	8.92188
4734	-0.078125
4735	-10.0781
4736	-19.0781
4737	-25.0781
4738	-27.0781
4739	-27.0781
4740	-27.0781
4741	-20.0781
4742	-17.0781
4743	-9.07813
4744	-2.07813
4745	8.92188
4746	16.9219
4747	19.9219
4748	22.9219
4749	19.9219
4750	23.9219
4751	17.9219
4752	5.92188
4753	-3.07813
4754	-7.07813
4755	-8.07813
4756	-17.0781
4757	-16.0781
4758	-17.0781
4759	-17.0781
4760	-17.0781
4761	-16.0781
4762	-16.0781
4763	-9.07813
4764	-4.07813
4765	2.92188
4766	9.92188
4767	8.92188
4768	9.92188
4769	12.9219
4770	16.9219
4771	15.9219
4772	12.9219
4773	12.9219
4774	7.92188
4775	2.92188
4776	-6.07813
4777	-14.0781
4778	-19.0781
4779	-19.0781
4780	-18.0781
4781	-12.0781
4782	-10.0781
4783	-2.07813
4784	-0.078125
4785	3.92188
4786	6.92188
4787	10.9219
4788	12.9219
4789	9.92188
4790	8.92188
4791	8.92188
4792	2.92188
4793	0.921875
4794	-6.07813
4795	-11.0781
4796	-12.0781
4797	-13.0781
4798	-8.07813
4799	-4.07813
4800	-6.07813
4801	-3.07813
4802	-4.07813
4803	-3.07813
4804	-4.07813
4805	0.921875
4806	2.92188
4807	5.92188
4808	7.92188
4809	7.92188
4810	6.92188
4811	2.92188
4812	1.92188
4813	0.921875
4814	1.92188
4815	-4.07813
4816	-3.07813
4817	-5.07813
4818	-7.07813
4819	-9.07813
4820	-7.07813
4821	-5.07813
4822	-3.07813
4823	1.92188
4824	7.92188
4825	12.9219
4826	16.9219
4827	15.9219
4828	12.9219
4829	7.92188
4830	3.92188
4831	0.921875
4832	0.921875
4833	-4.07813
4834	-7.07813
4835	-13.0781
4836	-14.0781
4837	-15.0781
4838	-11.0781
4839	-8.07813
4840	-3.07813
4841	-0.078125
4842	5.92188
4843	7.92188
4844	7.92188
4845	8.92188
4846	6.92188
4847	5.92188
4848	8.92188
4849	9.92188
4850	6.92188
4851	4.92188
4852	1.92188
4853	-1.07813
4854	-5.07813
4855	-7.07813
4856	-13.0781
4857	-15.0781
4858	-14.0781
4859	-10.0781
4860	-6.07813
4861	-2.07813
4862	0.921875
4863	0.921875
4864	5.92188
4865	7.92188
4866	15.9219
4867	19.9219
4868	14.9219
4869	9.92188
4870	6.92188
4871	3.92188
4872	1.92188
4873	-4.07813
4874	-9.07813
4875	-9.07813
4876	-6.07813
4877	-4.07813
4878	-2.07813
4879	-5.07813
4880	-2.07813
4881	-2.07813
4882	1.92188
4883	0.921875
4884	0.921875
4885	1.92188
4886	0.921875
4887	-2.07813
4888	-2.07813
4889	-3.07813
4890	-4.07813
4891	0.921875
4892	0.921875
4893	0.921875
4894	0.921875
4895	5.92188
4896	4.92188
4897	1.92188
4898	2.92188
4899	-0.078125
4900	-3.07813
4901	-5.07813
4902	-5.07813
4903	-4.07813
4904	-6.07813
4905	-5.07813
4906	-8.07813
4907	-3.07813
4908	-3.07813
4909	-1.07813
4910	2.92188
4911	0.921875
4912	1.92188
4913	1.92188
4914	4.92188
4915	6.92188
4916	7.92188
4917	9.92188
4918	10.9219
4919	12.9219
4920	13.9219
4921	11.9219
4922	7.92188
4923	0.921875
4924	-3.07813
4925	-9.07813
4926	-11.0781
4927	-15.0781
4928	-16.0781
4929	-15.0781
4930	-13.0781
4931	-9.07813
4932	-5.07813
4933	3.92188
4934	10.9219
4935	12.9219
4936	14.9219
4937	16.9219
4938	14.9219
4939	12.9219
4940	8.92188
4941	6.92188
4942	-0.078125
4943	-5.07813
4944	-9.07813
4945	-10.0781
4946	-9.07813
4947	-12.0781
4948	-15.0781
4949	-17.0781
4950	-16.0781
4951	-10.0781
4952	-9.07813
4953	-5.07813
4954	0.921875
4955	5.92188
4956	8.92188
4957	12.9219
4958	18.9219
4959	22.9219
4960	16.9219
4961	16.9219
4962	18.9219
4963	12.9219
4964	2.92188
4965	-5.07813
4966	-12.0781
4967	-16.0781
4968	-17.0781
4969	-20.0781
4970	-18.0781
4971	-15.0781
4972	-14.0781
4973	-4.07813
4974	5.92188
4975	11.9219
4976	17.9219
4977	18.9219
4978	20.9219
4979	16.9219
4980	14.9219
4981	6.92188
4982	4.92188
4983	-4.07813
4984	-11.0781
4985	-15.0781
4986	-16.0781
4987	-15.0781
4988	-16.0781
4989	-12.0781
4990	-11.0781
4991	-9.07813
4992	-2.07813
4993	2.92188
4994	5.92188
4995	8.92188
4996	8.92188
4997	13.9219
4998	11.9219
4999	8.92188
5000	6.92188
5001	3.92188
5002	-0.078125
5003	-1.07813
5004	-5.07813
5005	-8.07813
5006	-12.0781
5007	-10.0781
5008	-11.0781
5009	-8.07813
5010	-1.07813
5011	5.92188
5012	8.92188
5013	14.9219
5014	19.9219
5015	21.9219
5016	15.9219
5017	7.92188
5018	8.92188
5019	3.92188
5020	-4.07813
5021	-8.07813
5022	-15.0781
5023	-22.0781
5024	-21.0781
5025	-18.0781
5026	-7.07813
5027	2.92188
5028	10.9219
5029	8.92188
5030	12.9219
5031	12.9219
5032	12.9219
5033	12.9219
5034	6.92188
5035	2.92188
5036	-4.07813
5037	-7.07813
5038	-12.0781
5039	-16.0781
5040	-20.0781
5041	-20.0781
5042	-13.0781
5043	-10.0781
5044	-2.07813
5045	4.92188
5046	7.92188
5047	12.9219
5048	16.9219
5049	14.9219
5050	11.9219
5051	8.92188
5052	6.92188
5053	3.92188
5054	-1.07813
5055	-4.07813
5056	-12.0781
5057	-14.0781
5058	-13.0781
5059	-11.0781
5060	-11.0781
5061	-6.07813
5062	1.92188
5063	3.92188
5064	8.92188
5065	13.9219
5066	16.9219
5067	17.9219
5068	17.9219
5069	13.9219
5070	9.92188
5071	1.92188
5072	-3.07813
5073	-11.0781
5074	-22.0781
5075	-27.0781
5076	-25.0781
5077	-23.0781
5078	-20.0781
5079	-8.07813
5080	1.92188
5081	8.92188
5082	18.9219
5083	23.9219
5084	26.9219
5085	26.9219
5086	22.9219
5087	15.9219
5088	9.92188
5089	-0.078125
5090	-13.0781
5091	-24.0781
5092	-31.0781
5093	-30.0781
5094	-30.0781
5095	-25.0781
5096	-18.0781
5097	-9.07813
5098	-0.078125
5099	7.92188
5100	10.9219
5101	20.9219
5102	23.9219
5103	29.9219
5104	26.9219
5105	26.9219
5106	21.9219
5107	14.9219
5108	2.92188
5109	-8.07813
5110	-19.0781
5111	-26.0781
5112	-28.0781
5113	-31.0781
5114	-30.0781
5115	-25.0781
5116	-17.0781
5117	-10.0781
5118	-0.078125
5119	5.92188
5120	14.9219
5121	26.9219
5122	31.9219
5123	34.9219
5124	32.9219
5125	25.9219
5126	14.9219
5127	-0.078125
5128	-8.07813
5129	-16.0781
5130	-25.0781
5131	-28.0781
5132	-34.0781
5133	-35.0781
5134	-28.0781
5135	-21.0781
5136	-15.0781
5137	-11.0781
5138	-0.078125
5139	10.9219
5140	20.9219
5141	21.9219
5142	23.9219
5143	23.9219
5144	20.9219
5145	16.9219
5146	18.9219
5147	14.9219
5148	4.92188
5149	-3.07813
5150	-10.0781
5151	-12.0781
5152	-16.0781
5153	-21.0781
5154	-22.0781
5155	-22.0781
5156	-20.0781
5157	-12.0781
5158	-5.07813
5159	0.921875
5160	6.92188
5161	10.9219
5162	14.9219
5163	20.9219
5164	19.9219
5165	20.9219
5166	19.9219
5167	13.9219
5168	7.92188
5169	0.921875
5170	-3.07813
5171	-11.0781
5172	-17.0781
5173	-19.0781
5174	-15.0781
5175	-18.0781
5176	-12.0781
5177	-11.0781
5178	-11.0781
5179	-7.07813
5180	-4.07813
5181	-0.078125
5182	0.921875
5183	6.92188
5184	12.9219
5185	12.9219
5186	12.9219
5187	13.9219
5188	11.9219
5189	11.9219
5190	7.92188
5191	6.92188
5192	5.92188
5193	4.92188
5194	-2.07813
5195	-6.07813
5196	-15.0781
5197	-21.0781
5198	-19.0781
5199	-13.0781
5200	-8.07813
5201	-1.07813
5202	0.921875
5203	4.92188
5204	7.92188
5205	9.92188
5206	8.92188
5207	14.9219
5208	13.9219
5209	14.9219
5210	17.9219
5211	13.9219
5212	8.92188
5213	1.92188
5214	-1.07813
5215	-6.07813
5216	-8.07813
5217	-8.07813
5218	-7.07813
5219	-11.0781
5220	-12.0781
5221	-9.07813
5222	-13.0781
5223	-13.0781
5224	-9.07813
5225	-5.07813
5226	1.92188
5227	8.92188
5228	12.9219
5229	9.92188
5230	10.9219
5231	13.9219
5232	15.9219
5233	14.9219
5234	10.9219
5235	8.92188
5236	2.92188
5237	-2.07813
5238	-8.07813
5239	-14.0781
5240	-11.0781
5241	-15.0781
5242	-13.0781
5243	-13.0781
5244	-10.0781
5245	-9.07813
5246	-5.07813
5247	0.921875
5248	5.92188
5249	7.92188
5250	10.9219
5251	14.9219
5252	13.9219
5253	17.9219
5254	17.9219
5255	15.9219
5256	13.9219
5257	11.9219
5258	5.92188
5259	-1.07813
5260	-3.07813
5261	-10.0781
5262	-18.0781
5263	-22.0781
5264	-23.0781
5265	-25.0781
5266	-25.0781
5267	-19.0781
5268	-12.0781
5269	-5.07813
5270	2.92188
5271	11.9219
5272	19.9219
5273	21.9219
5274	24.9219
5275	29.9219
5276	26.9219
5277	21.9219
5278	13.9219
5279	6.92188
5280	0.921875
5281	-11.0781
5282	-18.0781
5283	-28.0781
5284	-29.0781
5285	-27.0781
5286	-29.0781
5287	-26.0781
5288	-20.0781
5289	-8.07813
5290	-0.078125
5291	8.92188
5292	15.9219
5293	26.9219
5294	32.9219
5295	36.9219
5296	37.9219
5297	34.9219
5298	26.9219
5299	17.9219
5300	5.92188
5301	-8.07813
5302	-20.0781
5303	-31.0781
5304	-39.0781
5305	-39.0781
5306	-35.0781
5307	-31.0781
5308	-25.0781
5309	-11.0781
5310	-0.078125
5311	9.92188
5312	20.9219
5313	34.9219
5314	40.9219
5315	40.9219
5316	35.9219
5317	26.9219
5318	16.9219
5319	3.92188
5320	-6.07813
5321	-14.0781
5322	-24.0781
5323	-33.0781
5324	-33.0781
5325	-36.0781
5326	-31.0781
5327	-26.0781
5328	-15.0781
5329	-3.07813
5330	9.92188
5331	15.9219
5332	22.9219
5333	28.9219
5334	31.9219
5335	30.9219
5336	24.9219
5337	18.9219
5338	9.92188
5339	-1.07813
5340	-8.07813
5341	-17.0781
5342	-23.0781
5343	-30.0781
5344	-24.0781
5345	-25.0781
5346	-18.0781
5347	-9.07813
5348	0.921875
5349	10.9219
5350	16.9219
5351	22.9219
5352	24.9219
5353	24.9219
5354	19.9219
5355	12.9219
5356	4.92188
5357	-2.07813
5358	-9.07813
5359	-16.0781
5360	-18.0781
5361	-22.0781
5362	-23.0781
5363	-20.0781
5364	-14.0781
5365	-0.078125
5366	6.92188
5367	12.9219
5368	14.9219
5369	18.9219
5370	18.9219
5371	14.9219
5372	10.9219
5373	7.92188
5374	2.92188
5375	-4.07813
5376	-9.07813
5377	-15.0781
5378	-19.0781
5379	-25.0781
5380	-23.0781
5381	-15.0781
5382	-7.07813
5383	-5.07813
5384	0.921875
5385	7.92188
5386	13.9219
5387	21.9219
5388	23.9219
5389	21.9219
5390	24.9219
5391	18.9219
5392	12.9219
5393	4.92188
5394	-5.07813
5395	-9.07813
5396	-17.0781
5397	-21.0781
5398	-25.0781
5399	-23.0781
5400	-23.0781
5401	-16.0781
5402	-6.07813
5403	1.92188
5404	10.9219
5405	14.9219
5406	16.9219
5407	19.9219
5408	23.9219
5409	23.9219
5410	19.9219
5411	12.9219
5412	4.92188
5413	-5.07813
5414	-12.0781
5415	-19.0781
5416	-20.0781
5417	-20.0781
5418	-21.0781
5419	-21.0781
5420	-16.0781
5421	-12.0781
5422	-7.07813
5423	-0.078125
5424	2.92188
5425	6.92188
5426	14.9219
5427	21.9219
5428	18.9219
5429	17.9219
5430	16.9219
5431	13.9219
5432	10.9219
5433	7.92188
5434	0.921875
5435	-3.07813
5436	-8.07813
5437	-12.0781
5438	-17.0781
5439	-19.0781
5440	-23.0781
5441	-17.0781
5442	-13.0781
5443	-9.07813
5444	-4.07813
5445	4.92188
5446	13.9219
5447	20.9219
5448	22.9219
5449	17.9219
5450	18.9219
5451	17.9219
5452	13.9219
5453	9.92188
5454	6.92188
5455	-2.07813
5456	-10.0781
5457	-15.0781
5458	-23.0781
5459	-23.0781
5460	-22.0781
5461	-20.0781
5462	-16.0781
5463	-13.0781
5464	-13.0781
5465	-4.07813
5466	-1.07813
5467	4.92188
5468	14.9219
5469	18.9219
5470	20.9219
5471	24.9219
5472	24.9219
5473	14.9219
5474	6.92188
5475	-1.07813
5476	-6.07813
5477	-13.0781
5478	-19.0781
5479	-19.0781
5480	-23.0781
5481	-25.0781
5482	-26.0781
5483	-21.0781
5484	-13.0781
5485	-3.07813
5486	4.92188
5487	15.9219
5488	21.9219
5489	22.9219
5490	23.9219
5491	25.9219
5492	21.9219
5493	15.9219
5494	12.9219
5495	5.92188
5496	-3.07813
5497	-12.0781
5498	-15.0781
5499	-21.0781
5500	-28.0781
5501	-29.0781
5502	-21.0781
5503	-17.0781
5504	-9.07813
5505	-5.07813
5506	-0.078125
5507	7.92188
5508	12.9219
5509	17.9219
5510	21.9219
5511	23.9219
5512	17.9219
5513	17.9219
5514	8.92188
5515	3.92188
5516	-6.07813
5517	-12.0781
5518	-20.0781
5519	-23.0781
5520	-23.0781
5521	-24.0781
5522	-19.0781
5523	-13.0781
5524	-9.07813
5525	-2.07813
5526	6.92188
5527	14.9219
5528	16.9219
5529	21.9219
5530	24.9219
5531	17.9219
5532	15.9219
5533	9.92188
5534	5.92188
5535	-1.07813
5536	-5.07813
5537	-10.0781
5538	-13.0781
5539	-16.0781
5540	-18.0781
5541	-16.0781
5542	-9.07813
5543	-8.07813
5544	-3.07813
5545	2.92188
5546	10.9219
5547	13.9219
5548	17.9219
5549	16.9219
5550	16.9219
5551	11.9219
5552	7.92188
5553	2.92188
5554	-6.07813
5555	-14.0781
5556	-13.0781
5557	-15.0781
5558	-19.0781
5559	-16.0781
5560	-15.0781
5561	-9.07813
5562	-2.07813
5563	5.92188
5564	7.92188
5565	16.9219
5566	17.9219
5567	18.9219
5568	17.9219
5569	14.9219
5570	6.92188
5571	2.92188
5572	-7.07813
5573	-10.0781
5574	-12.0781
5575	-16.0781
5576	-14.0781
5577	-14.0781
5578	-12.0781
5579	-7.07813
5580	0.921875
5581	5.92188
5582	9.92188
5583	17.9219
5584	20.9219
5585	20.9219
5586	16.9219
5587	12.9219
5588	5.92188
5589	2.92188
5590	-3.07813
5591	-6.07813
5592	-11.0781
5593	-15.0781
5594	-13.0781
5595	-14.0781
5596	-12.0781
5597	-11.0781
5598	-5.07813
5599	-1.07813
5600	0.921875
5601	6.92188
5602	8.92188
5603	12.9219
5604	12.9219
5605	13.9219
5606	11.9219
5607	7.92188
5608	0.921875
5609	1.92188
5610	-3.07813
5611	-8.07813
5612	-11.0781
5613	-14.0781
5614	-12.0781
5615	-12.0781
5616	-11.0781
5617	-5.07813
5618	-1.07813
5619	5.92188
5620	7.92188
5621	5.92188
5622	9.92188
5623	12.9219
5624	9.92188
5625	5.92188
5626	2.92188
5627	2.92188
5628	1.92188
5629	-1.07813
5630	-3.07813
5631	-2.07813
5632	-3.07813
5633	-0.078125
5634	-2.07813
5635	0.921875
5636	-1.07813
5637	0.921875
5638	-0.078125
5639	-1.07813
5640	-2.07813
5641	-1.07813
5642	-3.07813
5643	-2.07813
5644	-1.07813
5645	-0.078125
5646	-0.078125
5647	-1.07813
5648	0.921875
5649	1.92188
5650	1.92188
5651	2.92188
5652	3.92188
5653	3.92188
5654	4.92188
5655	1.92188
5656	0.921875
5657	0.921875
5658	-3.07813
5659	-3.07813
5660	-5.07813
5661	-2.07813
5662	-6.07813
5663	-5.07813
5664	-7.07813
5665	-8.07813
5666	-7.07813
5667	-7.07813
5668	-4.07813
5669	3.92188
5670	7.92188
5671	6.92188
5672	11.9219
5673	15.9219
5674	16.9219
5675	15.9219
5676	10.9219
5677	6.92188
5678	3.92188
5679	2.92188
5680	-1.07813
5681	-8.07813
5682	-12.0781
5683	-18.0781
5684	-17.0781
5685	-15.0781
5686	-15.0781
5687	-14.0781
5688	-5.07813
5689	2.92188
5690	4.92188
5691	5.92188
5692	11.9219
5693	16.9219
5694	20.9219
5695	16.9219
5696	19.9219
5697	17.9219
5698	11.9219
5699	5.92188
5700	-0.078125
5701	-9.07813
5702	-15.0781
5703	-18.0781
5704	-24.0781
5705	-28.0781
5706	-30.0781
5707	-26.0781
5708	-19.0781
5709	-11.0781
5710	-3.07813
5711	4.92188
5712	10.9219
5713	25.9219
5714	36.9219
5715	37.9219
5716	36.9219
5717	32.9219
5718	27.9219
5719	17.9219
5720	4.92188
5721	-7.07813
5722	-19.0781
5723	-26.0781
5724	-33.0781
5725	-38.0781
5726	-38.0781
5727	-34.0781
5728	-27.0781
5729	-14.0781
5730	-3.07813
5731	11.9219
5732	19.9219
5733	28.9219
5734	36.9219
5735	41.9219
5736	38.9219
5737	36.9219
5738	29.9219
5739	19.9219
5740	8.92188
5741	-6.07813
5742	-20.0781
5743	-31.0781
5744	-43.0781
5745	-48.0781
5746	-47.0781
5747	-42.0781
5748	-33.0781
5749	-23.0781
5750	-10.0781
5751	6.92188
5752	20.9219
5753	31.9219
5754	39.9219
5755	45.9219
5756	45.9219
5757	40.9219
5758	29.9219
5759	18.9219
5760	8.92188
5761	-5.07813
5762	-21.0781
5763	-30.0781
5764	-40.0781
5765	-39.0781
5766	-38.0781
5767	-34.0781
5768	-26.0781
5769	-18.0781
5770	-5.07813
5771	4.92188
5772	17.9219
5773	27.9219
5774	31.9219
5775	36.9219
5776	36.9219
5777	29.9219
5778	26.9219
5779	17.9219
5780	8.92188
5781	-2.07813
5782	-12.0781
5783	-18.0781
5784	-26.0781
5785	-32.0781
5786	-31.0781
5787	-31.0781
5788	-28.0781
5789	-23.0781
5790	-14.0781
5791	-5.07813
5792	1.92188
5793	12.9219
5794	15.9219
5795	23.9219
5796	28.9219
5797	28.9219
5798	28.9219
5799	23.9219
5800	13.9219
5801	6.92188
5802	1.92188
5803	-2.07813
5804	-9.07813
5805	-11.0781
5806	-19.0781
5807	-25.0781
5808	-25.0781
5809	-24.0781
5810	-22.0781
5811	-18.0781
5812	-10.0781
5813	-4.07813
5814	6.92188
5815	11.9219
5816	16.9219
5817	19.9219
5818	25.9219
5819	26.9219
5820	30.9219
5821	24.9219
5822	19.9219
5823	12.9219
5824	3.92188
5825	-6.07813
5826	-13.0781
5827	-22.0781
5828	-33.0781
5829	-35.0781
5830	-33.0781
5831	-28.0781
5832	-22.0781
5833	-17.0781
5834	-9.07813
5835	-1.07813
5836	8.92188
5837	20.9219
5838	30.9219
5839	29.9219
5840	30.9219
5841	29.9219
5842	26.9219
5843	18.9219
5844	6.92188
5845	-5.07813
5846	-14.0781
5847	-23.0781
5848	-29.0781
5849	-30.0781
5850	-31.0781
5851	-34.0781
5852	-29.0781
5853	-22.0781
5854	-12.0781
5855	0.921875
5856	11.9219
5857	19.9219
5858	25.9219
5859	26.9219
5860	30.9219
5861	27.9219
5862	27.9219
5863	22.9219
5864	12.9219
5865	-0.078125
5866	-6.07813
5867	-18.0781
5868	-25.0781
5869	-30.0781
5870	-31.0781
5871	-27.0781
5872	-21.0781
5873	-12.0781
5874	-3.07813
5875	4.92188
5876	13.9219
5877	18.9219
5878	22.9219
5879	19.9219
5880	19.9219
5881	16.9219
5882	9.92188
5883	2.92188
5884	-3.07813
5885	-12.0781
5886	-18.0781
5887	-17.0781
5888	-19.0781
5889	-17.0781
5890	-11.0781
5891	-7.07813
5892	-1.07813
5893	4.92188
5894	7.92188
5895	4.92188
5896	9.92188
5897	11.9219
5898	11.9219
5899	8.92188
5900	0.921875
5901	-3.07813
5902	-3.07813
5903	-3.07813
5904	-8.07813
5905	-11.0781
5906	-7.07813
5907	-4.07813
5908	-5.07813
5909	2.92188
5910	4.92188
5911	3.92188
5912	10.9219
5913	13.9219
5914	11.9219
5915	12.9219
5916	9.92188
5917	4.92188
5918	-0.078125
5919	-6.07813
5920	-12.0781
5921	-17.0781
5922	-19.0781
5923	-13.0781
5924	-9.07813
5925	-5.07813
5926	-2.07813
5927	6.92188
5928	11.9219
5929	14.9219
5930	15.9219
5931	16.9219
5932	17.9219
5933	12.9219
5934	10.9219
5935	1.92188
5936	-4.07813
5937	-12.0781
5938	-19.0781
5939	-21.0781
5940	-17.0781
5941	-17.0781
5942	-10.0781
5943	-7.07813
5944	-3.07813
5945	0.921875
5946	6.92188
5947	12.9219
5948	16.9219
5949	17.9219
5950	19.9219
5951	14.9219
5952	12.9219
5953	7.92188
5954	2.92188
5955	2.92188
5956	-2.07813
5957	-12.0781
5958	-16.0781
5959	-19.0781
5960	-16.0781
5961	-13.0781
5962	-13.0781
5963	-9.07813
5964	-3.07813
5965	2.92188
5966	7.92188
5967	13.9219
5968	21.9219
5969	22.9219
5970	20.9219
5971	16.9219
5972	14.9219
5973	8.92188
5974	1.92188
5975	-6.07813
5976	-12.0781
5977	-18.0781
5978	-21.0781
5979	-25.0781
5980	-25.0781
5981	-19.0781
5982	-13.0781
5983	-8.07813
5984	-0.078125
5985	4.92188
5986	12.9219
5987	20.9219
5988	24.9219
5989	28.9219
5990	22.9219
5991	17.9219
5992	12.9219
5993	6.92188
5994	-2.07813
5995	-10.0781
5996	-20.0781
5997	-24.0781
5998	-25.0781
5999	-20.0781
6000	-21.0781
6001	-19.0781
6002	-11.0781
6003	-3.07813
6004	4.92188
6005	14.9219
6006	19.9219
6007	21.9219
6008	25.9219
6009	27.9219
6010	25.9219
6011	21.9219
6012	11.9219
6013	1.92188
6014	-7.07813
6015	-16.0781
6016	-24.0781
6017	-27.0781
6018	-25.0781
6019	-25.0781
6020	-19.0781
6021	-11.0781
6022	-5.07813
6023	3.92188
6024	10.9219
6025	18.9219
6026	23.9219
6027	24.9219
6028	22.9219
6029	17.9219
6030	11.9219
6031	0.921875
6032	-5.07813
6033	-9.07813
6034	-15.0781
6035	-19.0781
6036	-19.0781
6037	-16.0781
6038	-13.0781
6039	-10.0781
6040	-6.07813
6041	1.92188
6042	5.92188
6043	10.9219
6044	11.9219
6045	13.9219
6046	12.9219
6047	8.92188
6048	4.92188
6049	0.921875
6050	-0.078125
6051	-2.07813
6052	-5.07813
6053	-5.07813
6054	-9.07813
6055	-7.07813
6056	-7.07813
6057	-6.07813
6058	0.921875
6059	4.92188
6060	7.92188
6061	12.9219
6062	12.9219
6063	11.9219
6064	7.92188
6065	-0.078125
6066	-0.078125
6067	-4.07813
6068	-11.0781
6069	-13.0781
6070	-14.0781
6071	-15.0781
6072	-15.0781
6073	-14.0781
6074	-7.07813
6075	-0.078125
6076	6.92188
6077	16.9219
6078	21.9219
6079	19.9219
6080	19.9219
6081	18.9219
6082	16.9219
6083	1.92188
6084	-2.07813
6085	-11.0781
6086	-15.0781
6087	-22.0781
6088	-29.0781
6089	-28.0781
6090	-25.0781
6091	-18.0781
6092	-10.0781
6093	-4.07813
6094	3.92188
6095	15.9219
6096	23.9219
6097	25.9219
6098	29.9219
6099	28.9219
6100	28.9219
6101	22.9219
6102	14.9219
6103	4.92188
6104	-6.07813
6105	-12.0781
6106	-22.0781
6107	-27.0781
6108	-31.0781
6109	-36.0781
6110	-31.0781
6111	-26.0781
6112	-17.0781
6113	-8.07813
6114	3.92188
6115	16.9219
6116	25.9219
6117	32.9219
6118	36.9219
6119	40.9219
6120	39.9219
6121	29.9219
6122	13.9219
6123	0.921875
6124	-8.07813
6125	-18.0781
6126	-30.0781
6127	-36.0781
6128	-39.0781
6129	-36.0781
6130	-33.0781
6131	-29.0781
6132	-17.0781
6133	-5.07813
6134	4.92188
6135	18.9219
6136	25.9219
6137	33.9219
6138	36.9219
6139	37.9219
6140	29.9219
6141	25.9219
6142	19.9219
6143	11.9219
6144	-0.078125
6145	-13.0781
6146	-23.0781
6147	-30.0781
6148	-36.0781
6149	-35.0781
6150	-31.0781
6151	-26.0781
6152	-16.0781
6153	-7.07813
6154	3.92188
6155	15.9219
6156	22.9219
6157	26.9219
6158	30.9219
6159	33.9219
6160	31.9219
6161	24.9219
6162	18.9219
6163	7.92188
6164	-5.07813
6165	-15.0781
6166	-26.0781
6167	-27.0781
6168	-30.0781
6169	-26.0781
6170	-24.0781
6171	-22.0781
6172	-13.0781
6173	-0.078125
6174	7.92188
6175	12.9219
6176	19.9219
6177	21.9219
6178	18.9219
6179	17.9219
6180	14.9219
6181	9.92188
6182	3.92188
6183	-1.07813
6184	-6.07813
6185	-9.07813
6186	-15.0781
6187	-19.0781
6188	-18.0781
6189	-19.0781
6190	-17.0781
6191	-12.0781
6192	-4.07813
6193	2.92188
6194	6.92188
6195	12.9219
6196	16.9219
6197	16.9219
6198	14.9219
6199	10.9219
6200	9.92188
6201	5.92188
6202	-0.078125
6203	-5.07813
6204	-10.0781
6205	-15.0781
6206	-14.0781
6207	-14.0781
6208	-11.0781
6209	-7.07813
6210	-0.078125
6211	2.92188
6212	3.92188
6213	7.92188
6214	10.9219
6215	13.9219
6216	10.9219
6217	4.92188
6218	-1.07813
6219	-6.07813
6220	-9.07813
6221	-9.07813
6222	-11.0781
6223	-13.0781
6224	-15.0781
6225	-10.0781
6226	-3.07813
6227	1.92188
6228	4.92188
6229	8.92188
6230	9.92188
6231	12.9219
6232	11.9219
6233	12.9219
6234	9.92188
6235	7.92188
6236	1.92188
6237	-3.07813
6238	-5.07813
6239	-9.07813
6240	-11.0781
6241	-15.0781
6242	-14.0781
6243	-10.0781
6244	-14.0781
6245	-8.07813
6246	-3.07813
6247	-1.07813
6248	6.92188
6249	14.9219
6250	17.9219
6251	16.9219
6252	15.9219
6253	14.9219
6254	10.9219
6255	8.92188
6256	2.92188
6257	-3.07813
6258	-7.07813
6259	-15.0781
6260	-22.0781
6261	-23.0781
6262	-21.0781
6263	-13.0781
6264	-8.07813
6265	-3.07813
6266	2.92188
6267	5.92188
6268	7.92188
6269	14.9219
6270	17.9219
6271	14.9219
6272	14.9219
6273	14.9219
6274	10.9219
6275	5.92188
6276	-1.07813
6277	-3.07813
6278	-6.07813
6279	-10.0781
6280	-12.0781
6281	-11.0781
6282	-11.0781
6283	-9.07813
6284	-8.07813
6285	-7.07813
6286	-2.07813
6287	0.921875
6288	4.92188
6289	6.92188
6290	12.9219
6291	16.9219
6292	18.9219
6293	13.9219
6294	11.9219
6295	11.9219
6296	9.92188
6297	4.92188
6298	-0.078125
6299	-7.07813
6300	-10.0781
6301	-12.0781
6302	-20.0781
6303	-17.0781
6304	-15.0781
6305	-15.0781
6306	-7.07813
6307	-0.078125
6308	6.92188
6309	8.92188
6310	9.92188
6311	12.9219
6312	11.9219
6313	12.9219
6314	14.9219
6315	11.9219
6316	7.92188
6317	4.92188
6318	-1.07813
6319	-7.07813
6320	-10.0781
6321	-12.0781
6322	-15.0781
6323	-16.0781
6324	-13.0781
6325	-14.0781
6326	-9.07813
6327	-5.07813
6328	1.92188
6329	6.92188
6330	9.92188
6331	14.9219
6332	16.9219
6333	19.9219
6334	21.9219
6335	19.9219
6336	12.9219
6337	3.92188
6338	-1.07813
6339	-9.07813
6340	-13.0781
6341	-17.0781
6342	-21.0781
6343	-22.0781
6344	-16.0781
6345	-13.0781
6346	-11.0781
6347	-1.07813
6348	4.92188
6349	9.92188
6350	18.9219
6351	23.9219
6352	21.9219
6353	16.9219
6354	11.9219
6355	6.92188
6356	-0.078125
6357	-7.07813
6358	-8.07813
6359	-15.0781
6360	-19.0781
6361	-15.0781
6362	-12.0781
6363	-13.0781
6364	-8.07813
6365	-3.07813
6366	2.92188
6367	7.92188
6368	9.92188
6369	14.9219
6370	13.9219
6371	13.9219
6372	10.9219
6373	7.92188
6374	1.92188
6375	-7.07813
6376	-9.07813
6377	-11.0781
6378	-14.0781
6379	-13.0781
6380	-14.0781
6381	-6.07813
6382	-2.07813
6383	-3.07813
6384	4.92188
6385	10.9219
6386	14.9219
6387	18.9219
6388	18.9219
6389	14.9219
6390	9.92188
6391	4.92188
6392	-4.07813
6393	-10.0781
6394	-16.0781
6395	-20.0781
6396	-24.0781
6397	-23.0781
6398	-17.0781
6399	-10.0781
6400	-8.07813
6401	6.92188
6402	13.9219
6403	20.9219
6404	20.9219
6405	24.9219
6406	24.9219
6407	19.9219
6408	12.9219
6409	1.92188
6410	-4.07813
6411	-11.0781
6412	-19.0781
6413	-24.0781
6414	-24.0781
6415	-23.0781
6416	-21.0781
6417	-16.0781
6418	-8.07813
6419	-0.078125
6420	7.92188
6421	11.9219
6422	20.9219
6423	26.9219
6424	27.9219
6425	23.9219
6426	18.9219
6427	13.9219
6428	5.92188
6429	0.921875
6430	-11.0781
6431	-16.0781
6432	-24.0781
6433	-24.0781
6434	-25.0781
6435	-22.0781
6436	-17.0781
6437	-10.0781
6438	-3.07813
6439	8.92188
6440	15.9219
6441	22.9219
6442	27.9219
6443	22.9219
6444	20.9219
6445	17.9219
6446	10.9219
6447	0.921875
6448	-4.07813
6449	-11.0781
6450	-15.0781
6451	-20.0781
6452	-21.0781
6453	-21.0781
6454	-14.0781
6455	-11.0781
6456	-4.07813
6457	2.92188
6458	6.92188
6459	8.92188
6460	11.9219
6461	13.9219
6462	10.9219
6463	10.9219
6464	12.9219
6465	7.92188
6466	3.92188
6467	-2.07813
6468	-2.07813
6469	-5.07813
6470	-11.0781
6471	-10.0781
6472	-10.0781
6473	-10.0781
6474	-10.0781
6475	-6.07813
6476	-4.07813
6477	1.92188
6478	3.92188
6479	6.92188
6480	5.92188
6481	9.92188
6482	10.9219
6483	10.9219
6484	8.92188
6485	3.92188
6486	-1.07813
6487	-0.078125
6488	-2.07813
6489	-8.07813
