##TITLE=4 film specter rel to air
##$NOTE=11.03.2023 11:45:3 ^0 x10 v:1
##$ITAB=-1,-1
##FIRSTX=499.643
##DELTAX=1.92912
##NPOINTS=2333
##XUNITS=1/CM
##YUNITS=ABSORBANCE
499.643	0.126099
501.572	0.118596
503.501	0.112752
505.43	0.112018
507.36	0.114467
509.289	0.115884
511.218	0.114899
513.147	0.113291
515.076	0.112436
517.005	0.111548
518.934	0.109834
520.863	0.108572
522.792	0.109526
524.722	0.112138
526.651	0.113823
528.58	0.113188
530.509	0.111599
532.438	0.111027
534.367	0.111573
536.296	0.111836
538.225	0.111002
540.155	0.109565
542.084	0.108178
544.013	0.106887
545.942	0.105683
547.871	0.104928
549.8	0.104778
551.729	0.104741
553.658	0.104326
555.588	0.103795
557.517	0.103816
559.446	0.104542
561.375	0.105468
563.304	0.106131
565.233	0.10654
567.162	0.106893
569.091	0.107223
571.021	0.107449
572.95	0.107552
574.879	0.10757
576.808	0.107518
578.737	0.107378
580.666	0.107112
582.595	0.106701
584.524	0.10622
586.454	0.105846
588.383	0.105718
590.312	0.105758
592.241	0.105732
594.17	0.10553
596.099	0.105353
598.028	0.105512
599.957	0.106034
601.887	0.106548
603.816	0.106651
605.745	0.106359
607.674	0.106052
609.603	0.105992
611.532	0.106032
613.461	0.105891
615.39	0.105553
617.32	0.105251
619.249	0.105158
621.178	0.105236
623.107	0.105342
625.036	0.105341
626.965	0.105174
628.894	0.104931
630.823	0.104816
632.753	0.104987
634.682	0.105445
636.611	0.106096
638.54	0.106809
640.469	0.107398
642.398	0.107734
644.327	0.107977
646.256	0.108489
648.186	0.109328
650.115	0.110022
652.044	0.110129
653.973	0.109856
655.902	0.109698
657.831	0.109699
659.76	0.109537
661.689	0.109319
663.619	0.109728
665.548	0.111276
667.477	0.113282
669.406	0.11393
671.335	0.11288
673.264	0.111575
675.193	0.111017
677.122	0.111222
679.052	0.11165
680.981	0.111851
682.91	0.111791
684.839	0.111616
686.768	0.111445
688.697	0.111358
690.626	0.111327
692.555	0.111184
694.485	0.110833
696.414	0.110461
698.343	0.110338
700.272	0.110435
702.201	0.110482
704.13	0.11043
706.059	0.11058
707.988	0.111114
709.917	0.11172
711.847	0.111935
713.776	0.111749
715.705	0.111601
717.634	0.1118
719.563	0.112178
721.492	0.112374
723.421	0.112302
725.35	0.112204
727.28	0.112302
729.209	0.11257
731.138	0.112827
733.067	0.112963
734.996	0.112992
736.925	0.112948
738.854	0.112846
740.783	0.112767
742.713	0.11288
744.642	0.113261
746.571	0.113765
748.5	0.114161
750.429	0.114383
752.358	0.114571
754.287	0.114903
756.216	0.115453
758.146	0.116183
760.075	0.116995
762.004	0.117782
763.933	0.118516
765.862	0.11925
767.791	0.119993
769.72	0.120638
771.649	0.121082
773.579	0.121405
775.508	0.12186
777.437	0.122739
779.366	0.124257
781.295	0.126474
783.224	0.129296
785.153	0.13261
787.082	0.136428
789.012	0.140799
790.941	0.145608
792.87	0.150661
794.799	0.155982
796.728	0.161929
798.657	0.169264
800.586	0.17939
802.515	0.193874
804.445	0.212285
806.374	0.229807
808.303	0.238465
810.232	0.233391
812.161	0.217686
814.09	0.199127
816.019	0.183785
817.948	0.173922
819.878	0.169222
821.807	0.168063
823.736	0.168741
825.665	0.170979
827.594	0.175652
829.523	0.182487
831.452	0.190323
833.381	0.202076
835.311	0.226875
837.24	0.27172
839.169	0.326425
841.098	0.357306
843.027	0.336939
844.956	0.283062
846.885	0.232508
848.814	0.201967
850.744	0.187412
852.673	0.179024
854.602	0.171987
856.531	0.166582
858.46	0.163034
860.389	0.160054
862.318	0.156912
864.247	0.154034
866.177	0.151708
868.106	0.149718
870.035	0.148072
871.964	0.147008
873.893	0.146357
875.822	0.145687
877.751	0.144973
879.68	0.144591
881.609	0.144858
883.539	0.145978
885.468	0.148132
887.397	0.151363
889.326	0.156077
891.255	0.164106
893.184	0.178128
895.113	0.198115
897.042	0.217749
898.972	0.226389
900.901	0.218094
902.83	0.1979
904.759	0.176396
906.688	0.160676
908.617	0.151626
910.546	0.14671
912.475	0.143505
914.405	0.141067
916.334	0.139343
918.263	0.138343
920.192	0.137939
922.121	0.137993
924.05	0.138424
925.979	0.139169
927.908	0.14018
929.838	0.1416
931.767	0.144018
933.696	0.148261
935.625	0.154449
937.554	0.161093
939.483	0.16564
941.412	0.166496
943.341	0.164456
945.271	0.161852
947.2	0.160599
949.129	0.161304
951.058	0.16372
952.987	0.167486
954.916	0.172599
956.845	0.179611
958.774	0.189315
960.704	0.202333
962.633	0.220142
964.562	0.247492
966.491	0.292588
968.42	0.361235
970.349	0.444726
972.278	0.507929
974.207	0.507014
976.137	0.444388
978.066	0.364143
979.995	0.298707
981.924	0.256895
983.853	0.235593
985.782	0.229054
987.711	0.234135
989.64	0.252899
991.57	0.290804
993.499	0.34872
995.428	0.410957
997.357	0.44214
999.286	0.417442
1001.22	0.355971
1003.14	0.293761
1005.07	0.248775
1007	0.2207
1008.93	0.20288
1010.86	0.19042
1012.79	0.181542
1014.72	0.175399
1016.65	0.170915
1018.58	0.167371
1020.51	0.164706
1022.44	0.162926
1024.36	0.16176
1026.29	0.16105
1028.22	0.161046
1030.15	0.162028
1032.08	0.163824
1034.01	0.165973
1035.94	0.168423
1037.87	0.171775
1039.8	0.176432
1041.73	0.181398
1043.66	0.184358
1045.58	0.183516
1047.51	0.179361
1049.44	0.174208
1051.37	0.170091
1053.3	0.167506
1055.23	0.165915
1057.16	0.16482
1059.09	0.164104
1061.02	0.163767
1062.95	0.163777
1064.88	0.164128
1066.81	0.164784
1068.73	0.165579
1070.66	0.166345
1072.59	0.167146
1074.52	0.168232
1076.45	0.169759
1078.38	0.171591
1080.31	0.173373
1082.24	0.174775
1084.17	0.175764
1086.1	0.176726
1088.03	0.178259
1089.95	0.180777
1091.88	0.184438
1093.81	0.189556
1095.74	0.196777
1097.67	0.206191
1099.6	0.215951
1101.53	0.222277
1103.46	0.221909
1105.39	0.214991
1107.32	0.204993
1109.25	0.195763
1111.18	0.189089
1113.1	0.184714
1115.03	0.181726
1116.96	0.179546
1118.89	0.177971
1120.82	0.176932
1122.75	0.176439
1124.68	0.176555
1126.61	0.177302
1128.54	0.178687
1130.47	0.180834
1132.4	0.183992
1134.32	0.18848
1136.25	0.194724
1138.18	0.203285
1140.11	0.214662
1142.04	0.229116
1143.97	0.24678
1145.9	0.267645
1147.83	0.290855
1149.76	0.31397
1151.69	0.333813
1153.62	0.348986
1155.55	0.361468
1157.47	0.375441
1159.4	0.395146
1161.33	0.423458
1163.26	0.459522
1165.19	0.49386
1167.12	0.50645
1169.05	0.479992
1170.98	0.420354
1172.91	0.351446
1174.84	0.292966
1176.77	0.25166
1178.69	0.225314
1180.62	0.208931
1182.55	0.198562
1184.48	0.19207
1186.41	0.188264
1188.34	0.186194
1190.27	0.185087
1192.2	0.184395
1194.13	0.183782
1196.06	0.183156
1197.99	0.18268
1199.91	0.182591
1201.84	0.182993
1203.77	0.183845
1205.7	0.185119
1207.63	0.186926
1209.56	0.189513
1211.49	0.193096
1213.42	0.197551
1215.35	0.202146
1217.28	0.205608
1219.21	0.206657
1221.14	0.204759
1223.06	0.200575
1224.99	0.19564
1226.92	0.19144
1228.85	0.188623
1230.78	0.187001
1232.71	0.18614
1234.64	0.185789
1236.57	0.185882
1238.5	0.186528
1240.43	0.188065
1242.36	0.190758
1244.28	0.194539
1246.21	0.199752
1248.14	0.208162
1250.07	0.221801
1252	0.239317
1253.93	0.253792
1255.86	0.256714
1257.79	0.2461
1259.72	0.228614
1261.65	0.212668
1263.58	0.202033
1265.51	0.195858
1267.43	0.192102
1269.36	0.189735
1271.29	0.188568
1273.22	0.188464
1275.15	0.189211
1277.08	0.190696
1279.01	0.192924
1280.94	0.195988
1282.87	0.199966
1284.8	0.204827
1286.73	0.210721
1288.65	0.218338
1290.58	0.228137
1292.51	0.238811
1294.44	0.247672
1296.37	0.253889
1298.3	0.260176
1300.23	0.268792
1302.16	0.27597
1304.09	0.273312
1306.02	0.257318
1307.95	0.234894
1309.87	0.216517
1311.8	0.207297
1313.73	0.205636
1315.66	0.207562
1317.59	0.210855
1319.52	0.215605
1321.45	0.222576
1323.38	0.232041
1325.31	0.243204
1327.24	0.253536
1329.17	0.259303
1331.1	0.258461
1333.02	0.253033
1334.95	0.247502
1336.88	0.245354
1338.81	0.247591
1340.74	0.253779
1342.67	0.263833
1344.6	0.278442
1346.53	0.298493
1348.46	0.325454
1350.39	0.362598
1352.32	0.413987
1354.24	0.479108
1356.17	0.546085
1358.1	0.591946
1360.03	0.599578
1361.96	0.579801
1363.89	0.56521
1365.82	0.58459
1367.75	0.653149
1369.68	0.776849
1371.61	0.951458
1373.54	1.14821
1375.47	1.2977
1377.39	1.31194
1379.32	1.1708
1381.25	0.953208
1383.18	0.739383
1385.11	0.56607
1387.04	0.44382
1388.97	0.368061
1390.9	0.324562
1392.83	0.298254
1394.76	0.279969
1396.69	0.266627
1398.61	0.257353
1400.54	0.250914
1402.47	0.24623
1404.4	0.242987
1406.33	0.241116
1408.26	0.240427
1410.19	0.240768
1412.12	0.242089
1414.05	0.244366
1415.98	0.247835
1417.91	0.253121
1419.83	0.260526
1421.76	0.26948
1423.69	0.280121
1425.62	0.295739
1427.55	0.323253
1429.48	0.369961
1431.41	0.437888
1433.34	0.519732
1435.27	0.597168
1437.2	0.65102
1439.13	0.68754
1441.06	0.733904
1442.98	0.810052
1444.91	0.924623
1446.84	1.07369
1448.77	1.22846
1450.7	1.34668
1452.63	1.40923
1454.56	1.42577
1456.49	1.42286
1458.42	1.42647
1460.35	1.42929
1462.28	1.39033
1464.2	1.28265
1466.13	1.13119
1468.06	0.970478
1469.99	0.809696
1471.92	0.655483
1473.85	0.527949
1475.78	0.440065
1477.71	0.382548
1479.64	0.339766
1481.57	0.305233
1483.5	0.279274
1485.43	0.260666
1487.35	0.245386
1489.28	0.23151
1491.21	0.220488
1493.14	0.212583
1495.07	0.205587
1497	0.198057
1498.93	0.191103
1500.86	0.185905
1502.79	0.18187
1504.72	0.178108
1506.65	0.174512
1508.57	0.171232
1510.5	0.168093
1512.43	0.165155
1514.36	0.162799
1516.29	0.161116
1518.22	0.159706
1520.15	0.158295
1522.08	0.15705
1524.01	0.155995
1525.94	0.154889
1527.87	0.153771
1529.8	0.152948
1531.72	0.152488
1533.65	0.152136
1535.58	0.151775
1537.51	0.151631
1539.44	0.151881
1541.37	0.152212
1543.3	0.152157
1545.23	0.151751
1547.16	0.151245
1549.09	0.15074
1551.02	0.150239
1552.94	0.149773
1554.87	0.149486
1556.8	0.149609
1558.73	0.150011
1560.66	0.14995
1562.59	0.149163
1564.52	0.148145
1566.45	0.147423
1568.38	0.147152
1570.31	0.147037
1572.24	0.146832
1574.16	0.146672
1576.09	0.146704
1578.02	0.14675
1579.95	0.146617
1581.88	0.146405
1583.81	0.14627
1585.74	0.146222
1587.67	0.146233
1589.6	0.146351
1591.53	0.146586
1593.46	0.146849
1595.39	0.147115
1597.31	0.147501
1599.24	0.148047
1601.17	0.148601
1603.1	0.149025
1605.03	0.14937
1606.96	0.149716
1608.89	0.15001
1610.82	0.150186
1612.75	0.150339
1614.68	0.150658
1616.61	0.151195
1618.53	0.151775
1620.46	0.15223
1622.39	0.152626
1624.32	0.153152
1626.25	0.153813
1628.18	0.154311
1630.11	0.154451
1632.04	0.154488
1633.97	0.15494
1635.9	0.155911
1637.83	0.156712
1639.76	0.156961
1641.68	0.157085
1643.61	0.157538
1645.54	0.158099
1647.47	0.158105
1649.4	0.157459
1651.33	0.156746
1653.26	0.156393
1655.19	0.156066
1657.12	0.15537
1659.05	0.154471
1660.98	0.153734
1662.9	0.15335
1664.83	0.153206
1666.76	0.153104
1668.69	0.153012
1670.62	0.153003
1672.55	0.1531
1674.48	0.153228
1676.41	0.15328
1678.34	0.153239
1680.27	0.153253
1682.2	0.153571
1684.12	0.154221
1686.05	0.154741
1687.98	0.154758
1689.91	0.154453
1691.84	0.15417
1693.77	0.1541
1695.7	0.154268
1697.63	0.154618
1699.56	0.155011
1701.49	0.15522
1703.42	0.15513
1705.35	0.154857
1707.27	0.154552
1709.2	0.154203
1711.13	0.153678
1713.06	0.15293
1714.99	0.152051
1716.92	0.15116
1718.85	0.150253
1720.78	0.149298
1722.71	0.148396
1724.64	0.147713
1726.57	0.147317
1728.49	0.147164
1730.42	0.147272
1732.35	0.147719
1734.28	0.148368
1736.21	0.14889
1738.14	0.149193
1740.07	0.149417
1742	0.149573
1743.93	0.149493
1745.86	0.149103
1747.79	0.148531
1749.72	0.14791
1751.64	0.147213
1753.57	0.14636
1755.5	0.145402
1757.43	0.144485
1759.36	0.143718
1761.29	0.143076
1763.22	0.142447
1765.15	0.141763
1767.08	0.141096
1769.01	0.140626
1770.94	0.140474
1772.86	0.140477
1774.79	0.140304
1776.72	0.139871
1778.65	0.139435
1780.58	0.139293
1782.51	0.139415
1784.44	0.13944
1786.37	0.139134
1788.3	0.138689
1790.23	0.138467
1792.16	0.138548
1794.08	0.138614
1796.01	0.138418
1797.94	0.138086
1799.87	0.137865
1801.8	0.137805
1803.73	0.13777
1805.66	0.137701
1807.59	0.137679
1809.52	0.137763
1811.45	0.137901
1813.38	0.138038
1815.31	0.138198
1817.23	0.13841
1819.16	0.138664
1821.09	0.138963
1823.02	0.13936
1824.95	0.139867
1826.88	0.140391
1828.81	0.140823
1830.74	0.141133
1832.67	0.141293
1834.6	0.141206
1836.53	0.140834
1838.45	0.140348
1840.38	0.140031
1842.31	0.140031
1844.24	0.140211
1846.17	0.140319
1848.1	0.140266
1850.03	0.140137
1851.96	0.139996
1853.89	0.139836
1855.82	0.139645
1857.75	0.139433
1859.68	0.139181
1861.6	0.138859
1863.53	0.13853
1865.46	0.13836
1867.39	0.13845
1869.32	0.138661
1871.25	0.138735
1873.18	0.138625
1875.11	0.138527
1877.04	0.138623
1878.97	0.138902
1880.9	0.139218
1882.82	0.139494
1884.75	0.139791
1886.68	0.140191
1888.61	0.140674
1890.54	0.141095
1892.47	0.141281
1894.4	0.141172
1896.33	0.140873
1898.26	0.140564
1900.19	0.140332
1902.12	0.140146
1904.05	0.139968
1905.97	0.139837
1907.9	0.139785
1909.83	0.139742
1911.76	0.139605
1913.69	0.139375
1915.62	0.139165
1917.55	0.139074
1919.48	0.139082
1921.41	0.139093
1923.34	0.139032
1925.27	0.138888
1927.19	0.138698
1929.12	0.138521
1931.05	0.138388
1932.98	0.138268
1934.91	0.138083
1936.84	0.137802
1938.77	0.137496
1940.7	0.137286
1942.63	0.137223
1944.56	0.137255
1946.49	0.137319
1948.41	0.137421
1950.34	0.137586
1952.27	0.13778
1954.2	0.137922
1956.13	0.137991
1958.06	0.138032
1959.99	0.138061
1961.92	0.138016
1963.85	0.137849
1965.78	0.137614
1967.71	0.137434
1969.64	0.137365
1971.56	0.137357
1973.49	0.137342
1975.42	0.137311
1977.35	0.137302
1979.28	0.137335
1981.21	0.137401
1983.14	0.13749
1985.07	0.137623
1987	0.137817
1988.93	0.138033
1990.86	0.138182
1992.78	0.138196
1994.71	0.138091
1996.64	0.137946
1998.57	0.137825
2000.5	0.137753
2002.43	0.137727
2004.36	0.137731
2006.29	0.137736
2008.22	0.137713
2010.15	0.137662
2012.08	0.137606
2014.01	0.137576
2015.93	0.137608
2017.86	0.137745
2019.79	0.137985
2021.72	0.138243
2023.65	0.138411
2025.58	0.138462
2027.51	0.138464
2029.44	0.138481
2031.37	0.138488
2033.3	0.138443
2035.23	0.138372
2037.15	0.138352
2039.08	0.138408
2041.01	0.1385
2042.94	0.138607
2044.87	0.138749
2046.8	0.138902
2048.73	0.138966
2050.66	0.138866
2052.59	0.13867
2054.52	0.138529
2056.45	0.138514
2058.37	0.138563
2060.3	0.138606
2062.23	0.138674
2064.16	0.138837
2066.09	0.139069
2068.02	0.139258
2069.95	0.139349
2071.88	0.139427
2073.81	0.139629
2075.74	0.140004
2077.67	0.140477
2079.6	0.140947
2081.52	0.141355
2083.45	0.141695
2085.38	0.141979
2087.31	0.142213
2089.24	0.142404
2091.17	0.142559
2093.1	0.142686
2095.03	0.142803
2096.96	0.142927
2098.89	0.143055
2100.82	0.143146
2102.74	0.143171
2104.67	0.14317
2106.6	0.143241
2108.53	0.143447
2110.46	0.143747
2112.39	0.144058
2114.32	0.144372
2116.25	0.144783
2118.18	0.14539
2120.11	0.146213
2122.04	0.147205
2123.97	0.148303
2125.89	0.149409
2127.82	0.150367
2129.75	0.150996
2131.68	0.151203
2133.61	0.151036
2135.54	0.150632
2137.47	0.150119
2139.4	0.149583
2141.33	0.149116
2143.26	0.148831
2145.19	0.148806
2147.11	0.14901
2149.04	0.149338
2150.97	0.149709
2152.9	0.150108
2154.83	0.150522
2156.76	0.150922
2158.69	0.151315
2160.62	0.151789
2162.55	0.152419
2164.48	0.153158
2166.41	0.153863
2168.33	0.154427
2170.26	0.154829
2172.19	0.155065
2174.12	0.155113
2176.05	0.155
2177.98	0.154832
2179.91	0.154714
2181.84	0.154645
2183.77	0.154553
2185.7	0.154397
2187.63	0.15422
2189.56	0.154083
2191.48	0.153999
2193.41	0.153919
2195.34	0.153792
2197.27	0.153619
2199.2	0.153445
2201.13	0.153289
2203.06	0.153106
2204.99	0.152829
2206.92	0.152446
2208.85	0.152025
2210.78	0.151671
2212.7	0.151471
2214.63	0.151464
2216.56	0.151607
2218.49	0.151798
2220.42	0.151966
2222.35	0.152145
2224.28	0.15242
2226.21	0.15279
2228.14	0.153146
2230.07	0.153373
2232	0.153446
2233.93	0.153401
2235.85	0.153288
2237.78	0.153188
2239.71	0.153214
2241.64	0.15344
2243.57	0.153844
2245.5	0.154385
2247.43	0.155078
2249.36	0.155948
2251.29	0.156902
2253.22	0.157727
2255.15	0.158223
2257.07	0.15831
2259	0.158029
2260.93	0.15753
2262.86	0.157032
2264.79	0.156714
2266.72	0.156571
2268.65	0.156414
2270.58	0.156053
2272.51	0.155462
2274.44	0.154749
2276.37	0.15403
2278.29	0.153382
2280.22	0.152883
2282.15	0.152619
2284.08	0.152631
2286.01	0.15288
2287.94	0.153265
2289.87	0.153686
2291.8	0.1541
2293.73	0.154531
2295.66	0.155019
2297.59	0.155546
2299.52	0.156064
2301.44	0.156586
2303.37	0.157205
2305.3	0.157977
2307.23	0.158835
2309.16	0.159674
2311.09	0.160505
2313.02	0.16148
2314.95	0.162742
2316.88	0.164305
2318.81	0.166041
2320.74	0.167729
2322.66	0.169171
2324.59	0.170359
2326.52	0.171492
2328.45	0.172794
2330.38	0.174281
2332.31	0.175704
2334.24	0.176764
2336.17	0.177434
2338.1	0.178031
2340.03	0.178834
2341.96	0.179543
2343.89	0.179452
2345.81	0.178513
2347.74	0.177622
2349.67	0.177797
2351.6	0.179622
2353.53	0.182844
2355.46	0.186104
2357.39	0.18798
2359.32	0.188459
2361.25	0.188257
2363.18	0.187613
2365.11	0.186473
2367.03	0.185001
2368.96	0.183427
2370.89	0.181742
2372.82	0.179813
2374.75	0.177634
2376.68	0.175355
2378.61	0.173154
2380.54	0.171154
2382.47	0.169466
2384.4	0.168224
2386.33	0.167542
2388.26	0.167403
2390.18	0.167622
2392.11	0.16796
2394.04	0.168258
2395.97	0.168474
2397.9	0.168617
2399.83	0.168685
2401.76	0.168677
2403.69	0.168586
2405.62	0.168387
2407.55	0.168067
2409.48	0.167696
2411.4	0.167437
2413.33	0.167434
2415.26	0.167706
2417.19	0.168189
2419.12	0.168861
2421.05	0.169731
2422.98	0.1707
2424.91	0.171507
2426.84	0.171908
2428.77	0.171871
2430.7	0.171535
2432.62	0.170983
2434.55	0.170152
2436.48	0.16903
2438.41	0.167833
2440.34	0.16688
2442.27	0.166284
2444.2	0.165874
2446.13	0.165448
2448.06	0.164992
2449.99	0.164625
2451.92	0.164385
2453.85	0.164185
2455.77	0.163948
2457.7	0.163684
2459.63	0.163434
2461.56	0.16322
2463.49	0.163064
2465.42	0.163005
2467.35	0.163055
2469.28	0.163193
2471.21	0.163421
2473.14	0.163785
2475.07	0.164298
2476.99	0.164855
2478.92	0.165306
2480.85	0.165588
2482.78	0.16577
2484.71	0.16596
2486.64	0.166208
2488.57	0.166496
2490.5	0.166781
2492.43	0.167007
2494.36	0.16709
2496.29	0.166958
2498.22	0.16664
2500.14	0.166303
2502.07	0.166166
2504	0.166324
2505.93	0.166695
2507.86	0.167128
2509.79	0.167578
2511.72	0.168148
2513.65	0.168972
2515.58	0.170084
2517.51	0.171397
2519.44	0.172766
2521.36	0.174061
2523.29	0.175224
2525.22	0.176304
2527.15	0.177422
2529.08	0.178637
2531.01	0.17985
2532.94	0.180891
2534.87	0.181713
2536.8	0.182467
2538.73	0.183366
2540.66	0.184502
2542.58	0.18585
2544.51	0.187395
2546.44	0.189184
2548.37	0.191203
2550.3	0.193271
2552.23	0.195115
2554.16	0.196577
2556.09	0.197728
2558.02	0.198792
2559.95	0.199979
2561.88	0.201412
2563.81	0.203174
2565.73	0.205394
2567.66	0.208209
2569.59	0.211644
2571.52	0.215546
2573.45	0.219685
2575.38	0.223831
2577.31	0.22766
2579.24	0.23056
2581.17	0.231748
2583.1	0.230755
2585.03	0.227856
2586.95	0.22395
2588.88	0.219981
2590.81	0.216508
2592.74	0.213733
2594.67	0.21178
2596.6	0.210804
2598.53	0.210858
2600.46	0.211781
2602.39	0.213321
2604.32	0.215365
2606.25	0.217962
2608.18	0.221045
2610.1	0.224179
2612.03	0.226709
2613.96	0.228221
2615.89	0.228789
2617.82	0.228724
2619.75	0.228194
2621.68	0.227181
2623.61	0.225736
2625.54	0.224103
2627.47	0.222538
2629.4	0.221144
2631.32	0.219981
2633.25	0.219238
2635.18	0.219199
2637.11	0.220014
2639.04	0.221545
2640.97	0.223435
2642.9	0.225307
2644.83	0.226972
2646.76	0.228528
2648.69	0.230279
2650.62	0.232484
2652.54	0.235121
2654.47	0.237868
2656.4	0.240313
2658.33	0.242157
2660.26	0.243262
2662.19	0.243616
2664.12	0.243402
2666.05	0.24307
2667.98	0.243194
2669.91	0.244094
2671.84	0.245571
2673.77	0.247049
2675.69	0.248011
2677.62	0.248319
2679.55	0.2482
2681.48	0.248011
2683.41	0.248013
2685.34	0.248237
2687.27	0.248512
2689.2	0.248671
2691.13	0.248789
2693.06	0.24919
2694.99	0.250215
2696.91	0.252042
2698.84	0.254722
2700.77	0.258292
2702.7	0.262774
2704.63	0.268139
2706.56	0.274382
2708.49	0.281583
2710.42	0.289876
2712.35	0.299481
2714.28	0.310772
2716.21	0.323904
2718.14	0.33779
2720.06	0.349408
2721.99	0.354903
2723.92	0.352302
2725.85	0.343178
2727.78	0.331295
2729.71	0.319859
2731.64	0.31013
2733.57	0.301858
2735.5	0.294313
2737.43	0.286994
2739.36	0.279907
2741.28	0.273506
2743.21	0.268331
2745.14	0.264607
2747.07	0.262178
2749	0.260769
2750.93	0.260205
2752.86	0.260392
2754.79	0.261259
2756.72	0.262767
2758.65	0.264869
2760.58	0.267367
2762.51	0.269927
2764.43	0.272327
2766.36	0.274638
2768.29	0.277111
2770.22	0.28001
2772.15	0.283624
2774.08	0.288307
2776.01	0.294285
2777.94	0.301502
2779.87	0.309867
2781.8	0.319679
2783.73	0.331562
2785.65	0.345818
2787.58	0.36192
2789.51	0.378692
2791.44	0.394853
2793.37	0.409475
2795.3	0.422421
2797.23	0.434918
2799.16	0.449546
2801.09	0.468921
2803.02	0.493752
2804.95	0.522023
2806.87	0.550326
2808.8	0.576411
2810.73	0.600627
2812.66	0.625244
2814.59	0.653114
2816.52	0.687114
2818.45	0.730196
2820.38	0.785516
2822.31	0.856934
2824.24	0.95007
2826.17	1.07286
2828.1	1.23403
2830.02	1.4381
2831.95	1.67505
2833.88	1.90676
2835.81	2.07928
2837.74	2.17554
2839.67	2.20245
2841.6	2.14187
2843.53	1.99677
2845.46	1.81456
2847.39	1.63868
2849.32	1.49329
2851.24	1.39225
2853.17	1.34463
2855.1	1.357
2857.03	1.43467
2858.96	1.58155
2860.89	1.79566
2862.82	2.05325
2864.75	2.28355
2866.68	2.41206
2868.61	2.46555
2870.54	2.49535
2872.47	2.50571
2874.39	2.5014
2876.32	2.50015
2878.25	2.4973
2880.18	2.46832
2882.11	2.41335
2884.04	2.36166
2885.97	2.33376
2887.9	2.3302
2889.83	2.34411
2891.76	2.37012
2893.69	2.40205
2895.61	2.43086
2897.54	2.45047
2899.47	2.45759
2901.4	2.44381
2903.33	2.406
2905.26	2.36336
2907.19	2.35068
2909.12	2.37603
2911.05	2.42383
2912.98	2.45563
2914.91	2.44765
2916.83	2.41363
2918.76	2.37667
2920.69	2.34757
2922.62	2.32914
2924.55	2.32028
2926.48	2.31477
2928.41	2.30463
2930.34	2.28787
2932.27	2.27003
2934.2	2.25824
2936.13	2.25582
2938.06	2.25899
2939.98	2.25618
2941.91	2.23667
2943.84	2.20457
2945.77	2.17669
2947.7	2.16494
2949.63	2.16613
2951.56	2.16593
2953.49	2.15139
2955.42	2.12013
2957.35	2.07843
2959.28	2.03467
2961.2	1.99459
2963.13	1.95855
2965.06	1.92183
2966.99	1.87681
2968.92	1.81187
2970.85	1.71139
2972.78	1.56894
2974.71	1.39982
2976.64	1.22883
2978.57	1.0728
2980.5	0.937577
2982.43	0.822865
2984.35	0.726503
2986.28	0.646233
2988.21	0.579884
2990.14	0.525223
2992.07	0.480042
2994	0.442382
2995.93	0.410654
2997.86	0.383624
2999.79	0.360354
3001.72	0.340138
3003.65	0.322442
3005.57	0.306887
3007.5	0.293223
3009.43	0.28127
3011.36	0.270814
3013.29	0.261589
3015.22	0.253343
3017.15	0.245925
3019.08	0.239275
3021.01	0.23334
3022.94	0.227997
3024.87	0.223083
3026.79	0.218534
3028.72	0.214461
3030.65	0.211016
3032.58	0.208179
3034.51	0.205743
3036.44	0.203558
3038.37	0.201673
3040.3	0.200172
3042.23	0.198957
3044.16	0.197826
3046.09	0.196702
3048.02	0.195626
3049.94	0.194553
3051.87	0.193332
3053.8	0.191942
3055.73	0.190581
3057.66	0.189447
3059.59	0.188536
3061.52	0.187731
3063.45	0.186965
3065.38	0.18619
3067.31	0.185288
3069.24	0.184179
3071.16	0.182991
3073.09	0.181993
3075.02	0.181361
3076.95	0.181089
3078.88	0.18107
3080.81	0.181178
3082.74	0.181262
3084.67	0.181194
3086.6	0.180972
3088.53	0.180737
3090.46	0.180672
3092.39	0.180885
3094.31	0.181335
3096.24	0.181833
3098.17	0.182148
3100.1	0.182193
3102.03	0.182111
3103.96	0.182119
3105.89	0.182303
3107.82	0.182616
3109.75	0.183031
3111.68	0.183577
3113.61	0.184253
3115.53	0.185015
3117.46	0.185872
3119.39	0.186876
3121.32	0.187975
3123.25	0.188978
3125.18	0.18972
3127.11	0.190222
3129.04	0.190643
3130.97	0.191154
3132.9	0.19188
3134.83	0.192882
3136.75	0.194083
3138.68	0.195269
3140.61	0.19619
3142.54	0.196652
3144.47	0.19653
3146.4	0.195851
3148.33	0.194914
3150.26	0.194178
3152.19	0.19384
3154.12	0.1936
3156.05	0.193047
3157.98	0.192236
3159.9	0.191674
3161.83	0.191674
3163.76	0.191944
3165.69	0.191965
3167.62	0.191623
3169.55	0.191296
3171.48	0.191388
3173.41	0.191963
3175.34	0.192816
3177.27	0.193713
3179.2	0.194487
3181.12	0.195031
3183.05	0.195343
3184.98	0.195556
3186.91	0.195787
3188.84	0.195941
3190.77	0.195771
3192.7	0.195215
3194.63	0.194549
3196.56	0.194089
3198.49	0.193754
3200.42	0.193129
3202.35	0.191982
3204.27	0.190491
3206.2	0.188866
3208.13	0.18702
3210.06	0.184852
3211.99	0.182676
3213.92	0.180963
3215.85	0.179659
3217.78	0.178168
3219.71	0.176099
3221.64	0.173736
3223.57	0.171558
3225.49	0.169635
3227.42	0.167792
3229.35	0.166119
3231.28	0.164867
3233.21	0.163926
3235.14	0.162828
3237.07	0.161371
3239	0.159902
3240.93	0.15883
3242.86	0.158118
3244.79	0.157461
3246.72	0.156765
3248.64	0.156192
3250.57	0.155845
3252.5	0.155665
3254.43	0.155616
3256.36	0.155758
3258.29	0.156086
3260.22	0.156447
3262.15	0.156703
3264.08	0.156846
3266.01	0.156924
3267.94	0.156923
3269.86	0.156824
3271.79	0.156688
3273.72	0.156582
3275.65	0.156482
3277.58	0.156335
3279.51	0.156209
3281.44	0.156231
3283.37	0.156376
3285.3	0.156457
3287.23	0.156398
3289.16	0.15637
3291.08	0.156529
3293.01	0.156777
3294.94	0.156921
3296.87	0.15699
3298.8	0.157134
3300.73	0.157258
3302.66	0.157042
3304.59	0.156376
3306.52	0.155544
3308.45	0.1549
3310.38	0.154559
3312.31	0.154491
3314.23	0.154665
3316.16	0.154947
3318.09	0.155093
3320.02	0.155065
3321.95	0.155164
3323.88	0.155624
3325.81	0.156257
3327.74	0.156772
3329.67	0.157259
3331.6	0.158023
3333.53	0.159004
3335.45	0.159766
3337.38	0.160107
3339.31	0.160328
3341.24	0.160707
3343.17	0.161019
3345.1	0.160829
3347.03	0.160126
3348.96	0.159377
3350.89	0.158954
3352.82	0.158746
3354.75	0.15841
3356.68	0.157823
3358.6	0.157175
3360.53	0.156714
3362.46	0.156495
3364.39	0.156389
3366.32	0.156264
3368.25	0.156109
3370.18	0.155944
3372.11	0.155685
3374.04	0.155205
3375.97	0.154571
3377.9	0.154072
3379.82	0.15392
3381.75	0.154026
3383.68	0.154177
3385.61	0.154334
3387.54	0.154585
3389.47	0.154893
3391.4	0.155088
3393.33	0.155144
3395.26	0.155263
3397.19	0.155592
3399.12	0.155985
3401.04	0.156168
3402.97	0.156071
3404.9	0.155917
3406.83	0.156007
3408.76	0.156436
3410.69	0.156984
3412.62	0.157229
3414.55	0.156882
3416.48	0.156084
3418.41	0.155349
3420.34	0.155063
3422.27	0.155046
3424.19	0.154759
3426.12	0.153992
3428.05	0.15312
3429.98	0.152586
3431.91	0.152354
3433.84	0.152074
3435.77	0.151638
3437.7	0.151225
3439.63	0.150854
3441.56	0.150268
3443.49	0.149408
3445.41	0.148708
3447.34	0.14861
3449.27	0.148919
3451.2	0.148951
3453.13	0.148312
3455.06	0.147293
3456.99	0.14648
3458.92	0.146114
3460.85	0.145933
3462.78	0.145584
3464.71	0.145017
3466.64	0.144475
3468.56	0.144176
3470.49	0.144101
3472.42	0.144058
3474.35	0.14389
3476.28	0.143568
3478.21	0.143162
3480.14	0.142829
3482.07	0.142773
3484	0.143046
3485.93	0.14335
3487.86	0.143216
3489.78	0.142509
3491.71	0.141616
3493.64	0.141029
3495.57	0.140852
3497.5	0.140882
3499.43	0.14105
3501.36	0.141517
3503.29	0.142265
3505.22	0.142856
3507.15	0.142806
3509.08	0.142083
3511	0.141087
3512.93	0.140204
3514.86	0.13951
3516.79	0.138944
3518.72	0.138604
3520.65	0.138699
3522.58	0.139209
3524.51	0.139767
3526.44	0.140006
3528.37	0.139919
3530.3	0.13972
3532.23	0.139473
3534.15	0.139122
3536.08	0.138842
3538.01	0.138992
3539.94	0.139576
3541.87	0.140026
3543.8	0.139798
3545.73	0.139078
3547.66	0.13856
3549.59	0.138574
3551.52	0.138838
3553.45	0.139033
3555.37	0.139163
3557.3	0.139271
3559.23	0.139172
3561.16	0.138717
3563.09	0.138137
3565.02	0.137864
3566.95	0.138022
3568.88	0.138293
3570.81	0.138415
3572.74	0.138477
3574.67	0.138639
3576.6	0.138824
3578.52	0.138764
3580.45	0.138352
3582.38	0.137834
3584.31	0.137661
3586.24	0.138166
3588.17	0.139212
3590.1	0.140226
3592.03	0.140651
3593.96	0.140244
3595.89	0.139185
3597.82	0.138026
3599.74	0.137257
3601.67	0.136867
3603.6	0.136547
3605.53	0.136279
3607.46	0.136432
3609.39	0.137139
3611.32	0.137898
3613.25	0.138283
3615.18	0.138591
3617.11	0.139274
3619.04	0.140033
3620.97	0.140202
3622.89	0.140029
3624.82	0.140554
3626.75	0.142288
3628.68	0.144176
3630.61	0.144652
3632.54	0.14385
3634.47	0.14292
3636.4	0.142298
3638.33	0.141714
3640.26	0.141102
3642.19	0.140884
3644.11	0.14139
3646.04	0.142401
3647.97	0.143291
3649.9	0.143682
3651.83	0.143765
3653.76	0.143672
3655.69	0.143129
3657.62	0.141868
3659.55	0.140221
3661.48	0.139046
3663.41	0.139013
3665.33	0.140129
3667.26	0.141749
3669.19	0.143072
3671.12	0.14393
3673.05	0.144812
3674.98	0.145894
3676.91	0.146499
3678.84	0.145928
3680.77	0.144425
3682.7	0.142961
3684.63	0.142601
3686.56	0.143905
3688.48	0.146263
3690.41	0.148159
3692.34	0.148815
3694.27	0.148685
3696.2	0.148377
3698.13	0.148101
3700.06	0.147987
3701.99	0.148323
3703.92	0.14917
3705.85	0.150051
3707.78	0.150237
3709.7	0.149373
3711.63	0.148056
3713.56	0.147365
3715.49	0.147685
3717.42	0.148637
3719.35	0.149727
3721.28	0.150787
3723.21	0.151895
3725.14	0.152865
3727.07	0.153198
3729	0.152847
3730.93	0.152577
3732.85	0.153076
3734.78	0.153598
3736.71	0.152658
3738.64	0.150271
3740.57	0.147764
3742.5	0.146303
3744.43	0.146209
3746.36	0.147192
3748.29	0.148909
3750.22	0.150679
3752.15	0.151333
3754.07	0.150579
3756	0.149565
3757.93	0.14934
3759.86	0.149632
3761.79	0.14956
3763.72	0.149214
3765.65	0.149547
3767.58	0.150787
3769.51	0.151849
3771.44	0.151783
3773.37	0.150944
3775.29	0.150141
3777.22	0.149719
3779.15	0.149684
3781.08	0.149969
3783.01	0.150252
3784.94	0.150066
3786.87	0.149484
3788.8	0.149254
3790.73	0.149777
3792.66	0.150359
3794.59	0.150062
3796.52	0.149184
3798.44	0.149413
3800.37	0.151945
3802.3	0.155677
3804.23	0.158035
3806.16	0.157558
3808.09	0.155124
3810.02	0.152652
3811.95	0.151274
3813.88	0.150914
3815.81	0.151062
3817.74	0.151603
3819.66	0.152712
3821.59	0.15404
3823.52	0.154756
3825.45	0.154513
3827.38	0.153865
3829.31	0.1537
3831.24	0.154423
3833.17	0.155646
3835.1	0.156531
3837.03	0.156533
3838.96	0.155856
3840.89	0.154976
3842.81	0.153869
3844.74	0.152327
3846.67	0.150955
3848.6	0.151302
3850.53	0.154581
3852.46	0.159128
3854.39	0.160457
3856.32	0.157646
3858.25	0.154186
3860.18	0.152707
3862.11	0.153395
3864.03	0.15501
3865.96	0.156545
3867.89	0.15763
3869.82	0.157586
3871.75	0.155903
3873.68	0.153729
3875.61	0.152991
3877.54	0.154161
3879.47	0.155888
3881.4	0.156642
3883.33	0.156318
3885.25	0.15574
3887.18	0.155333
3889.11	0.155213
3891.04	0.155705
3892.97	0.15681
3894.9	0.157821
3896.83	0.158324
3898.76	0.159019
3900.69	0.160639
3902.62	0.162095
3904.55	0.161416
3906.48	0.158794
3908.4	0.156456
3910.33	0.155928
3912.26	0.156622
3914.19	0.156942
3916.12	0.15645
3918.05	0.156514
3919.98	0.158523
3921.91	0.16198
3923.84	0.164737
3925.77	0.16492
3927.7	0.162649
3929.62	0.159869
3931.55	0.158384
3933.48	0.158233
3935.41	0.158323
3937.34	0.158299
3939.27	0.158825
3941.2	0.160116
3943.13	0.161152
3945.06	0.161003
3946.99	0.160271
3948.92	0.160274
3950.85	0.161218
3952.77	0.162001
3954.7	0.161794
3956.63	0.161067
3958.56	0.160874
3960.49	0.161619
3962.42	0.16272
3964.35	0.163342
3966.28	0.163274
3968.21	0.163052
3970.14	0.163333
3972.07	0.164262
3973.99	0.165533
3975.92	0.166851
3977.85	0.167968
3979.78	0.168395
3981.71	0.16776
3983.64	0.166677
3985.57	0.166527
3987.5	0.167863
3989.43	0.16955
3991.36	0.1701
3993.29	0.169472
3995.22	0.16872
3997.14	0.168226
3999.07	0.167418
4001	0.166257
4002.93	0.165824
4004.86	0.16696
4006.79	0.169069
4008.72	0.170871
4010.65	0.171914
4012.58	0.172747
4014.51	0.173894
4016.44	0.17524
4018.36	0.176221
4020.29	0.1763
4022.22	0.175458
4024.15	0.174481
4026.08	0.174442
4028.01	0.175524
4029.94	0.176719
4031.87	0.177158
4033.8	0.177282
4035.73	0.177962
4037.66	0.178839
4039.58	0.178657
4041.51	0.177386
4043.44	0.176906
4045.37	0.178985
4047.3	0.183366
4049.23	0.18852
4051.16	0.193541
4053.09	0.198336
4055.02	0.20245
4056.95	0.20504
4058.88	0.206155
4060.81	0.206836
4062.73	0.207459
4064.66	0.206989
4066.59	0.204532
4068.52	0.20086
4070.45	0.197571
4072.38	0.195206
4074.31	0.192992
4076.24	0.190217
4078.17	0.18706
4080.1	0.1841
4082.03	0.181812
4083.95	0.18066
4085.88	0.180926
4087.81	0.182038
4089.74	0.182649
4091.67	0.181837
4093.6	0.180003
4095.53	0.178335
4097.46	0.177707
4099.39	0.178255
4101.32	0.179649
4103.25	0.181324
4105.18	0.182653
4107.1	0.183318
4109.03	0.1835
4110.96	0.183527
4112.89	0.183451
4114.82	0.183246
4116.75	0.183298
4118.68	0.18428
4120.61	0.186337
4122.54	0.188585
4124.47	0.189708
4126.4	0.189122
4128.32	0.187444
4130.25	0.185762
4132.18	0.184555
4134.11	0.1835
4136.04	0.182235
4137.97	0.181017
4139.9	0.180477
4141.83	0.180969
4143.76	0.182395
4145.69	0.184429
4147.62	0.186563
4149.54	0.188081
4151.47	0.188439
4153.4	0.187845
4155.33	0.187233
4157.26	0.187515
4159.19	0.188901
4161.12	0.190913
4163.05	0.192838
4164.98	0.194102
4166.91	0.194467
4168.84	0.194055
4170.77	0.193133
4172.69	0.191877
4174.62	0.190545
4176.55	0.189787
4178.48	0.190337
4180.41	0.19211
4182.34	0.193836
4184.27	0.193946
4186.2	0.191985
4188.13	0.189187
4190.06	0.187618
4191.99	0.18857
4193.91	0.19155
4195.84	0.19474
4197.77	0.196656
4199.7	0.197446
4201.63	0.198444
4203.56	0.200449
4205.49	0.202752
4207.42	0.204028
4209.35	0.203847
4211.28	0.202938
4213.21	0.202116
4215.14	0.201411
4217.06	0.200445
4218.99	0.199354
4220.92	0.198952
4222.85	0.199924
4224.78	0.202142
4226.71	0.204935
4228.64	0.207777
4230.57	0.210444
4232.5	0.212645
4234.43	0.214065
4236.36	0.214907
4238.28	0.215873
4240.21	0.21718
4242.14	0.218004
4244.07	0.217481
4246	0.216051
4247.93	0.215078
4249.86	0.215137
4251.79	0.215289
4253.72	0.214203
4255.65	0.211516
4257.58	0.207911
4259.5	0.204383
4261.43	0.201645
4263.36	0.199846
4265.29	0.198457
4267.22	0.196724
4269.15	0.194592
4271.08	0.192996
4273.01	0.192915
4274.94	0.194317
4276.87	0.196288
4278.8	0.197927
4280.73	0.198751
4282.65	0.198594
4284.58	0.197734
4286.51	0.197025
4288.44	0.197301
4290.37	0.198578
4292.3	0.200276
4294.23	0.202213
4296.16	0.204746
4298.09	0.207718
4300.02	0.209999
4301.95	0.210772
4303.87	0.210932
4305.8	0.212364
4307.73	0.215725
4309.66	0.219588
4311.59	0.222083
4313.52	0.222993
4315.45	0.223709
4317.38	0.225289
4319.31	0.227252
4321.24	0.228387
4323.17	0.228128
4325.1	0.226728
4327.02	0.224466
4328.95	0.221257
4330.88	0.216998
4332.81	0.211783
4334.74	0.205732
4336.67	0.199073
4338.6	0.192567
4340.53	0.187388
4342.46	0.184237
4344.39	0.182713
4346.32	0.181733
4348.24	0.180365
4350.17	0.178254
4352.1	0.175754
4354.03	0.17388
4355.96	0.173575
4357.89	0.174503
4359.82	0.175026
4361.75	0.174118
4363.68	0.1729
4365.61	0.17334
4367.54	0.175656
4369.46	0.178055
4371.39	0.179265
4373.32	0.180151
4375.25	0.182074
4377.18	0.1847
4379.11	0.186503
4381.04	0.186925
4382.97	0.186862
4384.9	0.187053
4386.83	0.187119
4388.76	0.186544
4390.69	0.185725
4392.61	0.185378
4394.54	0.185347
4396.47	0.184619
4398.4	0.182503
4400.33	0.179337
4402.26	0.175978
4404.19	0.172948
4406.12	0.170277
4408.05	0.167983
4409.98	0.166307
4411.91	0.165331
4413.83	0.164572
4415.76	0.163328
4417.69	0.161434
4419.62	0.159426
4421.55	0.157855
4423.48	0.156752
4425.41	0.155864
4427.34	0.155065
4429.27	0.154221
4431.2	0.15297
4433.13	0.15106
4435.06	0.148829
4436.98	0.147016
4438.91	0.146074
4440.84	0.145841
4442.77	0.145791
4444.7	0.145336
4446.63	0.144051
4448.56	0.142063
4450.49	0.140203
4452.42	0.139352
4454.35	0.139622
4456.28	0.140434
4458.2	0.141222
4460.13	0.141681
4462.06	0.141522
4463.99	0.140687
4465.92	0.139881
4467.85	0.14009
4469.78	0.141176
4471.71	0.141714
4473.64	0.140851
4475.57	0.139611
4477.5	0.139521
4479.43	0.140413
4481.35	0.140653
4483.28	0.139493
4485.21	0.138085
4487.14	0.137893
4489.07	0.138979
4491	0.140283
4492.93	0.140911
4494.86	0.140543
4496.79	0.139151
4498.72	0.137196
4500.65	0.135835
4502.57	0.136156
4504.5	0.138056
4506.43	0.140356
4508.36	0.142048
4510.29	0.142949
4512.22	0.143167
4514.15	0.142654
4516.08	0.141571
4518.01	0.140478
4519.94	0.139662
4521.87	0.138669
4523.79	0.137148
4525.72	0.135922
4527.65	0.136361
4529.58	0.138493
4531.51	0.140477
4533.44	0.140609
4535.37	0.13944
4537.3	0.139094
4539.23	0.140537
4541.16	0.14242
4543.09	0.142922
4545.02	0.141943
4546.94	0.140923
4548.87	0.141048
4550.8	0.142349
4552.73	0.144202
4554.66	0.145762
4556.59	0.145954
4558.52	0.144148
4560.45	0.141252
4562.38	0.139284
4564.31	0.13927
4566.24	0.140184
4568.16	0.140448
4570.09	0.139855
4572.02	0.139344
4573.95	0.139311
4575.88	0.139157
4577.81	0.138446
4579.74	0.13761
4581.67	0.137339
4583.6	0.1379
4585.53	0.13916
4587.46	0.140671
4589.39	0.141547
4591.31	0.140963
4593.24	0.139188
4595.17	0.137628
4597.1	0.137292
4599.03	0.13769
4600.96	0.137768
4602.89	0.137521
4604.82	0.137878
4606.75	0.139093
4608.68	0.140188
4610.61	0.140288
4612.53	0.139831
4614.46	0.139839
4616.39	0.140316
4618.32	0.140102
4620.25	0.138504
4622.18	0.13665
4624.11	0.136583
4626.04	0.138888
4627.97	0.141642
4629.9	0.142117
4631.83	0.139586
4633.75	0.136115
4635.68	0.134325
4637.61	0.134717
4639.54	0.135714
4641.47	0.135956
4643.4	0.135772
4645.33	0.136264
4647.26	0.137663
4649.19	0.139258
4651.12	0.140503
4653.05	0.141403
4654.98	0.141878
4656.9	0.141493
4658.83	0.140197
4660.76	0.138787
4662.69	0.138083
4664.62	0.137946
4666.55	0.137628
4668.48	0.136989
4670.41	0.136766
4672.34	0.137427
4674.27	0.138306
4676.2	0.138273
4678.12	0.136947
4680.05	0.134842
4681.98	0.132556
4683.91	0.130461
4685.84	0.129206
4687.77	0.129762
4689.7	0.132494
4691.63	0.136492
4693.56	0.140166
4695.49	0.142374
4697.42	0.142872
4699.35	0.142081
4701.27	0.140816
4703.2	0.139826
4705.13	0.139063
4707.06	0.137733
4708.99	0.135758
4710.92	0.134772
4712.85	0.136478
4714.78	0.140062
4716.71	0.142569
4718.64	0.142354
4720.57	0.140941
4722.49	0.140617
4724.42	0.141359
4726.35	0.141473
4728.28	0.14048
4730.21	0.139582
4732.14	0.139466
4734.07	0.139425
4736	0.139016
4737.93	0.139103
4739.86	0.140354
4741.79	0.141754
4743.71	0.141848
4745.64	0.140909
4747.57	0.140739
4749.5	0.142327
4751.43	0.144417
4753.36	0.144722
4755.29	0.142311
4757.22	0.138615
4759.15	0.13608
4761.08	0.135874
4763.01	0.136992
4764.94	0.137621
4766.86	0.137148
4768.79	0.136479
4770.72	0.136519
4772.65	0.136999
4774.58	0.137036
4776.51	0.136341
4778.44	0.135426
4780.37	0.134887
4782.3	0.1348
4784.23	0.134663
4786.16	0.133727
4788.08	0.131669
4790.01	0.129269
4791.94	0.128201
4793.87	0.129687
4795.8	0.133292
4797.73	0.137233
4799.66	0.13986
4801.59	0.140899
4803.52	0.14149
4805.45	0.142992
4807.38	0.145469
4809.31	0.14726
4811.23	0.146441
4813.16	0.143043
4815.09	0.139492
4817.02	0.138308
4818.95	0.139636
4820.88	0.141511
4822.81	0.14218
4824.74	0.141474
4826.67	0.140038
4828.6	0.138295
4830.53	0.136686
4832.45	0.136142
4834.38	0.137332
4836.31	0.139588
4838.24	0.141346
4840.17	0.14177
4842.1	0.141422
4844.03	0.14117
4845.96	0.141092
4847.89	0.140781
4849.82	0.140121
4851.75	0.139157
4853.68	0.137736
4855.6	0.136122
4857.53	0.135631
4859.46	0.137464
4861.39	0.140726
4863.32	0.142676
4865.25	0.141623
4867.18	0.138974
4869.11	0.137559
4871.04	0.138368
4872.97	0.139902
4874.9	0.140461
4876.82	0.139954
4878.75	0.139333
4880.68	0.139144
4882.61	0.139165
4884.54	0.138971
4886.47	0.138409
4888.4	0.13781
4890.33	0.138031
4892.26	0.139914
4894.19	0.143227
4896.12	0.146327
4898.04	0.147289
4899.97	0.145534
4901.9	0.142181
4903.83	0.138957
4905.76	0.137167
4907.69	0.137455
4909.62	0.139652
4911.55	0.142527
4913.48	0.144234
4915.41	0.1437
4917.34	0.141637
4919.27	0.13987
4921.19	0.139436
4923.12	0.139583
4925.05	0.138863
4926.98	0.137004
4928.91	0.135329
4930.84	0.135358
4932.77	0.137324
4934.7	0.140115
4936.63	0.142308
4938.56	0.142986
4940.49	0.141967
4942.41	0.139914
4944.34	0.138149
4946.27	0.137721
4948.2	0.138406
4950.13	0.139006
4952.06	0.138892
4953.99	0.138725
4955.92	0.139269
4957.85	0.140235
4959.78	0.141001
4961.71	0.142014
4963.64	0.144314
4965.56	0.147571
4967.49	0.149626
4969.42	0.14871
4971.35	0.14555
4973.28	0.142457
4975.21	0.140829
4977.14	0.140289
4979.07	0.139902
4981	0.139455
4982.93	0.13942
4984.86	0.140094
4986.78	0.141056
4988.71	0.141439
4990.64	0.140802
4992.57	0.139786
4994.5	0.139591
4996.43	0.140514
4998.36	0.14135
