##TITLE=интерферограмма воздуха
##$NOTE=11.03.2023 11:18:3 ^0 x10 v:1 [Без приставки]
##$ITAB=-1,-1
##FIRSTX=0
##DELTAX=1
##NPOINTS=6490
##XUNITS=1/CM
##YUNITS=ABSORBANCE
0	-12.0625
1	-21.0625
2	-22.0625
3	-24.0625
4	-22.0625
5	-12.0625
6	-7.0625
7	3.9375
8	10.9375
9	16.9375
10	22.9375
11	26.9375
12	27.9375
13	18.9375
14	10.9375
15	1.9375
16	-11.0625
17	-25.0625
18	-30.0625
19	-31.0625
20	-32.0625
21	-27.0625
22	-15.0625
23	-0.0625
24	11.9375
25	20.9375
26	28.9375
27	30.9375
28	30.9375
29	29.9375
30	24.9375
31	17.9375
32	8.9375
33	-6.0625
34	-14.0625
35	-21.0625
36	-29.0625
37	-32.0625
38	-31.0625
39	-26.0625
40	-20.0625
41	-13.0625
42	-4.0625
43	7.9375
44	15.9375
45	23.9375
46	28.9375
47	32.9375
48	37.9375
49	34.9375
50	25.9375
51	12.9375
52	-3.0625
53	-18.0625
54	-36.0625
55	-49.0625
56	-59.0625
57	-61.0625
58	-54.0625
59	-39.0625
60	-26.0625
61	-3.0625
62	22.9375
63	40.9375
64	55.9375
65	70.9375
66	72.9375
67	66.9375
68	54.9375
69	34.9375
70	11.9375
71	-16.0625
72	-46.0625
73	-62.0625
74	-75.0625
75	-74.0625
76	-64.0625
77	-48.0625
78	-30.0625
79	-9.0625
80	12.9375
81	34.9375
82	50.9375
83	67.9375
84	77.9375
85	76.9375
86	63.9375
87	49.9375
88	26.9375
89	0.9375
90	-21.0625
91	-48.0625
92	-63.0625
93	-77.0625
94	-84.0625
95	-80.0625
96	-73.0625
97	-59.0625
98	-35.0625
99	-6.0625
100	26.9375
101	54.9375
102	78.9375
103	94.9375
104	98.9375
105	90.9375
106	72.9375
107	47.9375
108	13.9375
109	-19.0625
110	-53.0625
111	-81.0625
112	-101.063
113	-112.063
114	-108.063
115	-87.0625
116	-58.0625
117	-23.0625
118	18.9375
119	50.9375
120	79.9375
121	99.9375
122	105.938
123	101.938
124	89.9375
125	69.9375
126	44.9375
127	7.9375
128	-22.0625
129	-51.0625
130	-75.0625
131	-95.0625
132	-99.0625
133	-96.0625
134	-82.0625
135	-63.0625
136	-35.0625
137	-9.0625
138	18.9375
139	44.9375
140	65.9375
141	83.9375
142	94.9375
143	96.9375
144	82.9375
145	63.9375
146	38.9375
147	7.9375
148	-26.0625
149	-58.0625
150	-84.0625
151	-101.063
152	-106.063
153	-102.063
154	-86.0625
155	-66.0625
156	-33.0625
157	2.9375
158	37.9375
159	69.9375
160	92.9375
161	99.9375
162	96.9375
163	81.9375
164	64.9375
165	43.9375
166	19.9375
167	-7.0625
168	-36.0625
169	-56.0625
170	-67.0625
171	-73.0625
172	-69.0625
173	-63.0625
174	-51.0625
175	-33.0625
176	-16.0625
177	0.9375
178	21.9375
179	33.9375
180	40.9375
181	52.9375
182	57.9375
183	59.9375
184	54.9375
185	41.9375
186	23.9375
187	4.9375
188	-11.0625
189	-30.0625
190	-48.0625
191	-56.0625
192	-57.0625
193	-53.0625
194	-48.0625
195	-41.0625
196	-26.0625
197	-11.0625
198	8.9375
199	24.9375
200	38.9375
201	42.9375
202	45.9375
203	36.9375
204	23.9375
205	9.9375
206	-0.0625
207	-3.0625
208	-9.0625
209	-7.0625
210	-6.0625
211	-5.0625
212	-6.0625
213	-7.0625
214	-4.0625
215	1.9375
216	0.9375
217	-1.0625
218	-9.0625
219	-13.0625
220	-17.0625
221	-20.0625
222	-22.0625
223	-13.0625
224	-1.0625
225	14.9375
226	19.9375
227	23.9375
228	26.9375
229	29.9375
230	28.9375
231	25.9375
232	16.9375
233	14.9375
234	8.9375
235	-1.0625
236	-10.0625
237	-25.0625
238	-34.0625
239	-40.0625
240	-43.0625
241	-41.0625
242	-40.0625
243	-37.0625
244	-31.0625
245	-20.0625
246	-7.0625
247	9.9375
248	26.9375
249	40.9375
250	60.9375
251	68.9375
252	68.9375
253	64.9375
254	48.9375
255	25.9375
256	0.9375
257	-21.0625
258	-48.0625
259	-65.0625
260	-80.0625
261	-86.0625
262	-82.0625
263	-68.0625
264	-46.0625
265	-16.0625
266	16.9375
267	49.9375
268	71.9375
269	84.9375
270	92.9375
271	91.9375
272	78.9375
273	58.9375
274	37.9375
275	12.9375
276	-16.0625
277	-42.0625
278	-66.0625
279	-84.0625
280	-91.0625
281	-88.0625
282	-81.0625
283	-61.0625
284	-49.0625
285	-29.0625
286	0.9375
287	28.9375
288	54.9375
289	79.9375
290	93.9375
291	99.9375
292	95.9375
293	79.9375
294	54.9375
295	21.9375
296	-13.0625
297	-46.0625
298	-73.0625
299	-95.0625
300	-110.063
301	-107.063
302	-98.0625
303	-76.0625
304	-47.0625
305	-12.0625
306	31.9375
307	65.9375
308	90.9375
309	103.938
310	105.938
311	96.9375
312	77.9375
313	58.9375
314	32.9375
315	0.9375
316	-25.0625
317	-51.0625
318	-74.0625
319	-87.0625
320	-90.0625
321	-81.0625
322	-71.0625
323	-47.0625
324	-25.0625
325	-1.0625
326	21.9375
327	40.9375
328	52.9375
329	59.9375
330	68.9375
331	69.9375
332	64.9375
333	49.9375
334	28.9375
335	2.9375
336	-22.0625
337	-44.0625
338	-61.0625
339	-70.0625
340	-74.0625
341	-67.0625
342	-54.0625
343	-34.0625
344	-16.0625
345	2.9375
346	24.9375
347	41.9375
348	52.9375
349	56.9375
350	54.9375
351	39.9375
352	25.9375
353	6.9375
354	-5.0625
355	-15.0625
356	-22.0625
357	-23.0625
358	-19.0625
359	-15.0625
360	-11.0625
361	-8.0625
362	-1.0625
363	2.9375
364	4.9375
365	7.9375
366	4.9375
367	-1.0625
368	-3.0625
369	-6.0625
370	-11.0625
371	-11.0625
372	-4.0625
373	2.9375
374	6.9375
375	14.9375
376	17.9375
377	12.9375
378	12.9375
379	8.9375
380	5.9375
381	0.9375
382	-2.0625
383	-7.0625
384	-12.0625
385	-18.0625
386	-26.0625
387	-29.0625
388	-27.0625
389	-22.0625
390	-16.0625
391	-13.0625
392	-4.0625
393	0.9375
394	7.9375
395	14.9375
396	23.9375
397	30.9375
398	37.9375
399	38.9375
400	34.9375
401	24.9375
402	11.9375
403	-5.0625
404	-24.0625
405	-34.0625
406	-40.0625
407	-40.0625
408	-38.0625
409	-29.0625
410	-18.0625
411	-3.0625
412	11.9375
413	24.9375
414	37.9375
415	46.9375
416	46.9375
417	39.9375
418	25.9375
419	7.9375
420	-10.0625
421	-29.0625
422	-41.0625
423	-46.0625
424	-43.0625
425	-34.0625
426	-23.0625
427	-11.0625
428	-1.0625
429	11.9375
430	20.9375
431	32.9375
432	35.9375
433	34.9375
434	29.9375
435	22.9375
436	4.9375
437	-6.0625
438	-17.0625
439	-30.0625
440	-36.0625
441	-40.0625
442	-39.0625
443	-33.0625
444	-28.0625
445	-17.0625
446	-4.0625
447	9.9375
448	24.9375
449	39.9375
450	52.9375
451	58.9375
452	59.9375
453	51.9375
454	37.9375
455	15.9375
456	-6.0625
457	-28.0625
458	-46.0625
459	-60.0625
460	-68.0625
461	-71.0625
462	-66.0625
463	-52.0625
464	-30.0625
465	-5.0625
466	25.9375
467	51.9375
468	74.9375
469	82.9375
470	79.9375
471	70.9375
472	52.9375
473	30.9375
474	5.9375
475	-19.0625
476	-41.0625
477	-55.0625
478	-68.0625
479	-73.0625
480	-76.0625
481	-69.0625
482	-55.0625
483	-31.0625
484	-8.0625
485	14.9375
486	30.9375
487	45.9375
488	55.9375
489	55.9375
490	54.9375
491	54.9375
492	50.9375
493	40.9375
494	28.9375
495	11.9375
496	-10.0625
497	-33.0625
498	-51.0625
499	-64.0625
500	-68.0625
501	-65.0625
502	-51.0625
503	-38.0625
504	-20.0625
505	-2.0625
506	14.9375
507	31.9375
508	46.9375
509	55.9375
510	64.9375
511	63.9375
512	53.9375
513	35.9375
514	18.9375
515	-1.0625
516	-20.0625
517	-34.0625
518	-43.0625
519	-49.0625
520	-44.0625
521	-38.0625
522	-37.0625
523	-33.0625
524	-29.0625
525	-18.0625
526	-10.0625
527	4.9375
528	16.9375
529	30.9375
530	37.9375
531	37.9375
532	35.9375
533	33.9375
534	27.9375
535	21.9375
536	14.9375
537	5.9375
538	-1.0625
539	-15.0625
540	-33.0625
541	-41.0625
542	-47.0625
543	-48.0625
544	-34.0625
545	-18.0625
546	-5.0625
547	7.9375
548	18.9375
549	24.9375
550	26.9375
551	27.9375
552	30.9375
553	24.9375
554	23.9375
555	17.9375
556	11.9375
557	0.9375
558	-10.0625
559	-17.0625
560	-19.0625
561	-18.0625
562	-17.0625
563	-8.0625
564	0.9375
565	-1.0625
566	-8.0625
567	-17.0625
568	-20.0625
569	-18.0625
570	-12.0625
571	-3.0625
572	7.9375
573	15.9375
574	16.9375
575	15.9375
576	11.9375
577	10.9375
578	8.9375
579	9.9375
580	10.9375
581	8.9375
582	6.9375
583	-2.0625
584	-8.0625
585	-20.0625
586	-23.0625
587	-15.0625
588	-11.0625
589	-7.0625
590	3.9375
591	0.9375
592	-5.0625
593	-8.0625
594	-7.0625
595	-4.0625
596	2.9375
597	11.9375
598	20.9375
599	29.9375
600	27.9375
601	25.9375
602	21.9375
603	11.9375
604	4.9375
605	-0.0625
606	-9.0625
607	-21.0625
608	-27.0625
609	-34.0625
610	-38.0625
611	-39.0625
612	-36.0625
613	-23.0625
614	-1.0625
615	13.9375
616	27.9375
617	36.9375
618	37.9375
619	34.9375
620	26.9375
621	17.9375
622	12.9375
623	3.9375
624	-8.0625
625	-13.0625
626	-22.0625
627	-29.0625
628	-33.0625
629	-31.0625
630	-29.0625
631	-22.0625
632	-13.0625
633	-3.0625
634	8.9375
635	15.9375
636	23.9375
637	29.9375
638	28.9375
639	29.9375
640	27.9375
641	24.9375
642	18.9375
643	7.9375
644	-2.0625
645	-11.0625
646	-21.0625
647	-32.0625
648	-38.0625
649	-39.0625
650	-31.0625
651	-23.0625
652	-17.0625
653	-3.0625
654	11.9375
655	19.9375
656	28.9375
657	38.9375
658	37.9375
659	35.9375
660	26.9375
661	17.9375
662	3.9375
663	-11.0625
664	-23.0625
665	-32.0625
666	-37.0625
667	-31.0625
668	-28.0625
669	-25.0625
670	-14.0625
671	-5.0625
672	2.9375
673	6.9375
674	12.9375
675	16.9375
676	17.9375
677	20.9375
678	21.9375
679	17.9375
680	11.9375
681	5.9375
682	1.9375
683	-3.0625
684	-5.0625
685	-6.0625
686	-11.0625
687	-16.0625
688	-18.0625
689	-21.0625
690	-17.0625
691	-9.0625
692	-3.0625
693	0.9375
694	5.9375
695	17.9375
696	21.9375
697	21.9375
698	21.9375
699	16.9375
700	14.9375
701	7.9375
702	0.9375
703	-5.0625
704	-11.0625
705	-18.0625
706	-27.0625
707	-27.0625
708	-22.0625
709	-16.0625
710	-11.0625
711	-3.0625
712	0.9375
713	9.9375
714	10.9375
715	10.9375
716	12.9375
717	11.9375
718	8.9375
719	6.9375
720	4.9375
721	2.9375
722	1.9375
723	-3.0625
724	-9.0625
725	-11.0625
726	-13.0625
727	-15.0625
728	-19.0625
729	-18.0625
730	-14.0625
731	-10.0625
732	-0.0625
733	3.9375
734	10.9375
735	24.9375
736	33.9375
737	37.9375
738	37.9375
739	31.9375
740	21.9375
741	6.9375
742	-9.0625
743	-23.0625
744	-34.0625
745	-43.0625
746	-45.0625
747	-44.0625
748	-36.0625
749	-24.0625
750	-7.0625
751	10.9375
752	22.9375
753	36.9375
754	41.9375
755	45.9375
756	44.9375
757	34.9375
758	22.9375
759	4.9375
760	-11.0625
761	-27.0625
762	-40.0625
763	-46.0625
764	-46.0625
765	-44.0625
766	-35.0625
767	-25.0625
768	-15.0625
769	-1.0625
770	11.9375
771	25.9375
772	34.9375
773	36.9375
774	38.9375
775	35.9375
776	27.9375
777	18.9375
778	8.9375
779	-2.0625
780	-13.0625
781	-23.0625
782	-28.0625
783	-30.0625
784	-34.0625
785	-31.0625
786	-16.0625
787	-4.0625
788	8.9375
789	21.9375
790	28.9375
791	34.9375
792	35.9375
793	27.9375
794	17.9375
795	7.9375
796	-4.0625
797	-15.0625
798	-25.0625
799	-34.0625
800	-40.0625
801	-38.0625
802	-26.0625
803	-12.0625
804	4.9375
805	17.9375
806	31.9375
807	36.9375
808	32.9375
809	25.9375
810	14.9375
811	0.9375
812	-10.0625
813	-19.0625
814	-27.0625
815	-34.0625
816	-31.0625
817	-30.0625
818	-26.0625
819	-18.0625
820	-6.0625
821	7.9375
822	20.9375
823	30.9375
824	37.9375
825	35.9375
826	30.9375
827	20.9375
828	11.9375
829	3.9375
830	-2.0625
831	-3.0625
832	-10.0625
833	-13.0625
834	-17.0625
835	-22.0625
836	-20.0625
837	-20.0625
838	-16.0625
839	-7.0625
840	-2.0625
841	4.9375
842	6.9375
843	15.9375
844	18.9375
845	22.9375
846	20.9375
847	19.9375
848	15.9375
849	8.9375
850	-0.0625
851	-8.0625
852	-21.0625
853	-30.0625
854	-31.0625
855	-26.0625
856	-21.0625
857	-10.0625
858	-0.0625
859	1.9375
860	5.9375
861	9.9375
862	6.9375
863	7.9375
864	5.9375
865	4.9375
866	1.9375
867	0.9375
868	-5.0625
869	-5.0625
870	-5.0625
871	-0.0625
872	8.9375
873	14.9375
874	13.9375
875	9.9375
876	4.9375
877	-3.0625
878	-6.0625
879	-14.0625
880	-17.0625
881	-12.0625
882	-8.0625
883	-5.0625
884	6.9375
885	6.9375
886	11.9375
887	15.9375
888	13.9375
889	14.9375
890	12.9375
891	5.9375
892	-1.0625
893	-10.0625
894	-17.0625
895	-21.0625
896	-19.0625
897	-15.0625
898	-9.0625
899	-0.0625
900	10.9375
901	14.9375
902	15.9375
903	17.9375
904	8.9375
905	2.9375
906	-7.0625
907	-11.0625
908	-8.0625
909	-7.0625
910	-10.0625
911	-9.0625
912	-10.0625
913	-4.0625
914	-3.0625
915	-2.0625
916	-0.0625
917	1.9375
918	3.9375
919	4.9375
920	2.9375
921	2.9375
922	1.9375
923	5.9375
924	15.9375
925	21.9375
926	21.9375
927	22.9375
928	18.9375
929	4.9375
930	-9.0625
931	-18.0625
932	-25.0625
933	-35.0625
934	-37.0625
935	-31.0625
936	-24.0625
937	-10.0625
938	0.9375
939	11.9375
940	20.9375
941	27.9375
942	34.9375
943	36.9375
944	31.9375
945	22.9375
946	13.9375
947	0.9375
948	-12.0625
949	-23.0625
950	-25.0625
951	-31.0625
952	-27.0625
953	-19.0625
954	-15.0625
955	-14.0625
956	-15.0625
957	-13.0625
958	-6.0625
959	-3.0625
960	-3.0625
961	5.9375
962	17.9375
963	23.9375
964	29.9375
965	31.9375
966	35.9375
967	36.9375
968	22.9375
969	13.9375
970	-2.0625
971	-14.0625
972	-32.0625
973	-45.0625
974	-48.0625
975	-49.0625
976	-43.0625
977	-27.0625
978	-8.0625
979	11.9375
980	26.9375
981	40.9375
982	51.9375
983	49.9375
984	40.9375
985	29.9375
986	19.9375
987	4.9375
988	-8.0625
989	-22.0625
990	-26.0625
991	-29.0625
992	-33.0625
993	-29.0625
994	-23.0625
995	-18.0625
996	-9.0625
997	-7.0625
998	-1.0625
999	-1.0625
1000	-3.0625
1001	1.9375
1002	7.9375
1003	13.9375
1004	21.9375
1005	28.9375
1006	29.9375
1007	24.9375
1008	14.9375
1009	4.9375
1010	-8.0625
1011	-19.0625
1012	-31.0625
1013	-36.0625
1014	-34.0625
1015	-31.0625
1016	-21.0625
1017	-11.0625
1018	0.9375
1019	15.9375
1020	30.9375
1021	40.9375
1022	44.9375
1023	37.9375
1024	27.9375
1025	14.9375
1026	-7.0625
1027	-25.0625
1028	-35.0625
1029	-38.0625
1030	-33.0625
1031	-21.0625
1032	-8.0625
1033	8.9375
1034	17.9375
1035	22.9375
1036	23.9375
1037	21.9375
1038	16.9375
1039	11.9375
1040	4.9375
1041	-5.0625
1042	-14.0625
1043	-20.0625
1044	-25.0625
1045	-27.0625
1046	-19.0625
1047	-10.0625
1048	-7.0625
1049	-2.0625
1050	3.9375
1051	-1.0625
1052	-1.0625
1053	-5.0625
1054	-1.0625
1055	1.9375
1056	10.9375
1057	17.9375
1058	25.9375
1059	33.9375
1060	33.9375
1061	26.9375
1062	14.9375
1063	3.9375
1064	-9.0625
1065	-26.0625
1066	-42.0625
1067	-49.0625
1068	-53.0625
1069	-44.0625
1070	-30.0625
1071	-11.0625
1072	8.9375
1073	29.9375
1074	45.9375
1075	55.9375
1076	56.9375
1077	46.9375
1078	28.9375
1079	5.9375
1080	-10.0625
1081	-23.0625
1082	-31.0625
1083	-37.0625
1084	-32.0625
1085	-25.0625
1086	-21.0625
1087	-10.0625
1088	-4.0625
1089	6.9375
1090	15.9375
1091	16.9375
1092	9.9375
1093	4.9375
1094	-2.0625
1095	-8.0625
1096	-10.0625
1097	-9.0625
1098	0.9375
1099	8.9375
1100	18.9375
1101	25.9375
1102	24.9375
1103	14.9375
1104	1.9375
1105	-13.0625
1106	-19.0625
1107	-25.0625
1108	-27.0625
1109	-26.0625
1110	-21.0625
1111	-6.0625
1112	5.9375
1113	13.9375
1114	19.9375
1115	27.9375
1116	24.9375
1117	20.9375
1118	7.9375
1119	-3.0625
1120	-18.0625
1121	-30.0625
1122	-35.0625
1123	-30.0625
1124	-19.0625
1125	-0.0625
1126	17.9375
1127	32.9375
1128	38.9375
1129	36.9375
1130	27.9375
1131	15.9375
1132	-1.0625
1133	-19.0625
1134	-33.0625
1135	-35.0625
1136	-36.0625
1137	-33.0625
1138	-20.0625
1139	-3.0625
1140	11.9375
1141	19.9375
1142	26.9375
1143	30.9375
1144	25.9375
1145	17.9375
1146	4.9375
1147	-5.0625
1148	-15.0625
1149	-21.0625
1150	-22.0625
1151	-16.0625
1152	-11.0625
1153	-0.0625
1154	7.9375
1155	13.9375
1156	15.9375
1157	14.9375
1158	6.9375
1159	-7.0625
1160	-19.0625
1161	-30.0625
1162	-32.0625
1163	-26.0625
1164	-11.0625
1165	0.9375
1166	14.9375
1167	33.9375
1168	43.9375
1169	42.9375
1170	34.9375
1171	23.9375
1172	5.9375
1173	-15.0625
1174	-25.0625
1175	-38.0625
1176	-37.0625
1177	-33.0625
1178	-22.0625
1179	-7.0625
1180	6.9375
1181	23.9375
1182	29.9375
1183	34.9375
1184	26.9375
1185	14.9375
1186	-5.0625
1187	-23.0625
1188	-33.0625
1189	-34.0625
1190	-29.0625
1191	-13.0625
1192	4.9375
1193	21.9375
1194	32.9375
1195	36.9375
1196	35.9375
1197	23.9375
1198	5.9375
1199	-13.0625
1200	-25.0625
1201	-38.0625
1202	-43.0625
1203	-40.0625
1204	-31.0625
1205	-24.0625
1206	-7.0625
1207	7.9375
1208	23.9375
1209	39.9375
1210	46.9375
1211	46.9375
1212	38.9375
1213	21.9375
1214	3.9375
1215	-12.0625
1216	-25.0625
1217	-32.0625
1218	-30.0625
1219	-19.0625
1220	-9.0625
1221	-0.0625
1222	5.9375
1223	3.9375
1224	-3.0625
1225	-14.0625
1226	-27.0625
1227	-28.0625
1228	-28.0625
1229	-19.0625
1230	-1.0625
1231	15.9375
1232	33.9375
1233	47.9375
1234	55.9375
1235	61.9375
1236	52.9375
1237	33.9375
1238	10.9375
1239	-17.0625
1240	-43.0625
1241	-64.0625
1242	-76.0625
1243	-82.0625
1244	-70.0625
1245	-46.0625
1246	-17.0625
1247	14.9375
1248	39.9375
1249	60.9375
1250	70.9375
1251	68.9375
1252	50.9375
1253	32.9375
1254	11.9375
1255	-8.0625
1256	-21.0625
1257	-25.0625
1258	-20.0625
1259	-14.0625
1260	-5.0625
1261	2.9375
1262	-0.0625
1263	-3.0625
1264	-10.0625
1265	-19.0625
1266	-25.0625
1267	-26.0625
1268	-29.0625
1269	-25.0625
1270	-20.0625
1271	-10.0625
1272	7.9375
1273	21.9375
1274	35.9375
1275	49.9375
1276	49.9375
1277	44.9375
1278	33.9375
1279	10.9375
1280	-14.0625
1281	-40.0625
1282	-58.0625
1283	-66.0625
1284	-53.0625
1285	-33.0625
1286	-7.0625
1287	19.9375
1288	40.9375
1289	51.9375
1290	47.9375
1291	36.9375
1292	22.9375
1293	2.9375
1294	-13.0625
1295	-23.0625
1296	-27.0625
1297	-25.0625
1298	-19.0625
1299	-7.0625
1300	4.9375
1301	16.9375
1302	17.9375
1303	20.9375
1304	21.9375
1305	5.9375
1306	-7.0625
1307	-26.0625
1308	-33.0625
1309	-38.0625
1310	-34.0625
1311	-18.0625
1312	-4.0625
1313	20.9375
1314	43.9375
1315	49.9375
1316	46.9375
1317	42.9375
1318	22.9375
1319	-5.0625
1320	-28.0625
1321	-49.0625
1322	-61.0625
1323	-57.0625
1324	-43.0625
1325	-25.0625
1326	-3.0625
1327	16.9375
1328	37.9375
1329	44.9375
1330	46.9375
1331	42.9375
1332	30.9375
1333	13.9375
1334	-7.0625
1335	-28.0625
1336	-43.0625
1337	-49.0625
1338	-38.0625
1339	-25.0625
1340	-6.0625
1341	19.9375
1342	37.9375
1343	48.9375
1344	43.9375
1345	33.9375
1346	10.9375
1347	-13.0625
1348	-31.0625
1349	-37.0625
1350	-39.0625
1351	-31.0625
1352	-15.0625
1353	0.9375
1354	18.9375
1355	25.9375
1356	25.9375
1357	21.9375
1358	16.9375
1359	3.9375
1360	-10.0625
1361	-19.0625
1362	-23.0625
1363	-22.0625
1364	-14.0625
1365	-1.0625
1366	18.9375
1367	30.9375
1368	43.9375
1369	49.9375
1370	38.9375
1371	18.9375
1372	-7.0625
1373	-38.0625
1374	-66.0625
1375	-79.0625
1376	-85.0625
1377	-76.0625
1378	-51.0625
1379	-17.0625
1380	23.9375
1381	56.9375
1382	79.9375
1383	86.9375
1384	82.9375
1385	66.9375
1386	38.9375
1387	6.9375
1388	-21.0625
1389	-41.0625
1390	-58.0625
1391	-64.0625
1392	-63.0625
1393	-53.0625
1394	-33.0625
1395	-14.0625
1396	6.9375
1397	22.9375
1398	32.9375
1399	31.9375
1400	21.9375
1401	11.9375
1402	4.9375
1403	1.9375
1404	9.9375
1405	19.9375
1406	33.9375
1407	45.9375
1408	49.9375
1409	43.9375
1410	24.9375
1411	-4.0625
1412	-34.0625
1413	-59.0625
1414	-77.0625
1415	-87.0625
1416	-79.0625
1417	-63.0625
1418	-38.0625
1419	-5.0625
1420	27.9375
1421	54.9375
1422	77.9375
1423	82.9375
1424	79.9375
1425	61.9375
1426	34.9375
1427	-2.0625
1428	-31.0625
1429	-58.0625
1430	-75.0625
1431	-79.0625
1432	-70.0625
1433	-51.0625
1434	-22.0625
1435	4.9375
1436	28.9375
1437	40.9375
1438	42.9375
1439	38.9375
1440	24.9375
1441	7.9375
1442	-4.0625
1443	-13.0625
1444	-9.0625
1445	0.9375
1446	15.9375
1447	26.9375
1448	35.9375
1449	36.9375
1450	30.9375
1451	20.9375
1452	2.9375
1453	-20.0625
1454	-41.0625
1455	-59.0625
1456	-63.0625
1457	-55.0625
1458	-41.0625
1459	-21.0625
1460	9.9375
1461	36.9375
1462	58.9375
1463	65.9375
1464	61.9375
1465	46.9375
1466	21.9375
1467	-4.0625
1468	-33.0625
1469	-52.0625
1470	-55.0625
1471	-48.0625
1472	-33.0625
1473	-17.0625
1474	-3.0625
1475	9.9375
1476	16.9375
1477	23.9375
1478	18.9375
1479	9.9375
1480	1.9375
1481	-10.0625
1482	-23.0625
1483	-29.0625
1484	-31.0625
1485	-23.0625
1486	-5.0625
1487	18.9375
1488	43.9375
1489	61.9375
1490	65.9375
1491	55.9375
1492	39.9375
1493	10.9375
1494	-21.0625
1495	-41.0625
1496	-57.0625
1497	-62.0625
1498	-55.0625
1499	-37.0625
1500	-17.0625
1501	4.9375
1502	25.9375
1503	38.9375
1504	42.9375
1505	38.9375
1506	29.9375
1507	11.9375
1508	-2.0625
1509	-14.0625
1510	-20.0625
1511	-20.0625
1512	-16.0625
1513	0.9375
1514	15.9375
1515	23.9375
1516	27.9375
1517	25.9375
1518	12.9375
1519	-3.0625
1520	-23.0625
1521	-40.0625
1522	-57.0625
1523	-62.0625
1524	-54.0625
1525	-36.0625
1526	-10.0625
1527	19.9375
1528	43.9375
1529	60.9375
1530	62.9375
1531	53.9375
1532	33.9375
1533	11.9375
1534	-10.0625
1535	-28.0625
1536	-38.0625
1537	-39.0625
1538	-37.0625
1539	-33.0625
1540	-22.0625
1541	-15.0625
1542	-6.0625
1543	4.9375
1544	19.9375
1545	32.9375
1546	33.9375
1547	29.9375
1548	16.9375
1549	1.9375
1550	-9.0625
1551	-13.0625
1552	-9.0625
1553	4.9375
1554	21.9375
1555	36.9375
1556	41.9375
1557	30.9375
1558	11.9375
1559	-16.0625
1560	-40.0625
1561	-54.0625
1562	-57.0625
1563	-49.0625
1564	-29.0625
1565	-10.0625
1566	8.9375
1567	22.9375
1568	32.9375
1569	38.9375
1570	42.9375
1571	41.9375
1572	33.9375
1573	24.9375
1574	4.9375
1575	-17.0625
1576	-41.0625
1577	-61.0625
1578	-64.0625
1579	-54.0625
1580	-38.0625
1581	-14.0625
1582	10.9375
1583	24.9375
1584	25.9375
1585	19.9375
1586	8.9375
1587	-5.0625
1588	-10.0625
1589	-6.0625
1590	8.9375
1591	24.9375
1592	35.9375
1593	43.9375
1594	40.9375
1595	26.9375
1596	10.9375
1597	-9.0625
1598	-22.0625
1599	-33.0625
1600	-42.0625
1601	-44.0625
1602	-39.0625
1603	-28.0625
1604	-23.0625
1605	-10.0625
1606	4.9375
1607	22.9375
1608	33.9375
1609	45.9375
1610	51.9375
1611	48.9375
1612	39.9375
1613	21.9375
1614	-3.0625
1615	-24.0625
1616	-44.0625
1617	-50.0625
1618	-47.0625
1619	-35.0625
1620	-12.0625
1621	7.9375
1622	21.9375
1623	22.9375
1624	15.9375
1625	4.9375
1626	-6.0625
1627	-10.0625
1628	-11.0625
1629	-1.0625
1630	16.9375
1631	27.9375
1632	31.9375
1633	29.9375
1634	19.9375
1635	4.9375
1636	-10.0625
1637	-23.0625
1638	-29.0625
1639	-35.0625
1640	-34.0625
1641	-38.0625
1642	-35.0625
1643	-25.0625
1644	-12.0625
1645	8.9375
1646	34.9375
1647	61.9375
1648	72.9375
1649	69.9375
1650	47.9375
1651	10.9375
1652	-32.0625
1653	-65.0625
1654	-85.0625
1655	-84.0625
1656	-64.0625
1657	-34.0625
1658	-1.0625
1659	28.9375
1660	43.9375
1661	43.9375
1662	32.9375
1663	24.9375
1664	22.9375
1665	18.9375
1666	17.9375
1667	16.9375
1668	12.9375
1669	5.9375
1670	-3.0625
1671	-9.0625
1672	-14.0625
1673	-15.0625
1674	-9.0625
1675	-0.0625
1676	1.9375
1677	-6.0625
1678	-24.0625
1679	-36.0625
1680	-49.0625
1681	-52.0625
1682	-38.0625
1683	-8.0625
1684	27.9375
1685	62.9375
1686	91.9375
1687	105.938
1688	96.9375
1689	71.9375
1690	31.9375
1691	-16.0625
1692	-61.0625
1693	-87.0625
1694	-98.0625
1695	-96.0625
1696	-75.0625
1697	-45.0625
1698	-13.0625
1699	16.9375
1700	35.9375
1701	44.9375
1702	46.9375
1703	39.9375
1704	27.9375
1705	7.9375
1706	-15.0625
1707	-32.0625
1708	-43.0625
1709	-42.0625
1710	-23.0625
1711	0.9375
1712	32.9375
1713	60.9375
1714	73.9375
1715	65.9375
1716	35.9375
1717	-7.0625
1718	-51.0625
1719	-85.0625
1720	-106.063
1721	-100.063
1722	-66.0625
1723	-14.0625
1724	36.9375
1725	73.9375
1726	97.9375
1727	96.9375
1728	78.9375
1729	52.9375
1730	24.9375
1731	-3.0625
1732	-30.0625
1733	-53.0625
1734	-68.0625
1735	-79.0625
1736	-79.0625
1737	-59.0625
1738	-22.0625
1739	25.9375
1740	72.9375
1741	111.938
1742	125.938
1743	107.938
1744	68.9375
1745	9.9375
1746	-50.0625
1747	-93.0625
1748	-109.063
1749	-89.0625
1750	-48.0625
1751	-3.0625
1752	38.9375
1753	54.9375
1754	48.9375
1755	23.9375
1756	-9.0625
1757	-53.0625
1758	-84.0625
1759	-104.063
1760	-103.063
1761	-82.0625
1762	-48.0625
1763	-15.0625
1764	34.9375
1765	81.9375
1766	128.938
1767	155.938
1768	164.938
1769	146.938
1770	104.938
1771	38.9375
1772	-39.0625
1773	-110.063
1774	-166.063
1775	-193.063
1776	-176.063
1777	-124.063
1778	-52.0625
1779	27.9375
1780	94.9375
1781	130.938
1782	130.938
1783	102.938
1784	47.9375
1785	-10.0625
1786	-51.0625
1787	-75.0625
1788	-67.0625
1789	-42.0625
1790	-5.0625
1791	36.9375
1792	62.9375
1793	72.9375
1794	74.9375
1795	56.9375
1796	27.9375
1797	-2.0625
1798	-35.0625
1799	-78.0625
1800	-113.063
1801	-135.063
1802	-135.063
1803	-109.063
1804	-52.0625
1805	29.9375
1806	116.938
1807	188.938
1808	226.938
1809	217.938
1810	156.938
1811	59.9375
1812	-49.0625
1813	-147.063
1814	-205.063
1815	-214.063
1816	-180.063
1817	-111.063
1818	-29.0625
1819	43.9375
1820	97.9375
1821	116.938
1822	109.938
1823	81.9375
1824	37.9375
1825	-6.0625
1826	-45.0625
1827	-81.0625
1828	-97.0625
1829	-96.0625
1830	-70.0625
1831	-30.0625
1832	29.9375
1833	90.9375
1834	134.938
1835	150.938
1836	136.938
1837	83.9375
1838	10.9375
1839	-73.0625
1840	-147.063
1841	-187.063
1842	-182.063
1843	-141.063
1844	-60.0625
1845	36.9375
1846	129.938
1847	194.938
1848	218.938
1849	203.938
1850	142.938
1851	50.9375
1852	-51.0625
1853	-145.063
1854	-212.063
1855	-235.063
1856	-221.063
1857	-166.063
1858	-83.0625
1859	9.9375
1860	94.9375
1861	158.938
1862	188.938
1863	186.938
1864	148.938
1865	86.9375
1866	16.9375
1867	-46.0625
1868	-91.0625
1869	-102.063
1870	-82.0625
1871	-30.0625
1872	37.9375
1873	103.938
1874	152.938
1875	162.938
1876	127.938
1877	58.9375
1878	-41.0625
1879	-149.063
1880	-234.063
1881	-287.063
1882	-289.063
1883	-242.063
1884	-152.063
1885	-27.0625
1886	99.9375
1887	206.938
1888	278.938
1889	297.938
1890	261.938
1891	185.938
1892	72.9375
1893	-45.0625
1894	-148.063
1895	-214.063
1896	-234.063
1897	-201.063
1898	-133.063
1899	-42.0625
1900	47.9375
1901	106.938
1902	134.938
1903	128.938
1904	82.9375
1905	22.9375
1906	-49.0625
1907	-111.063
1908	-154.063
1909	-166.063
1910	-139.063
1911	-75.0625
1912	9.9375
1913	112.938
1914	201.938
1915	262.938
1916	280.938
1917	233.938
1918	145.938
1919	19.9375
1920	-111.063
1921	-217.063
1922	-269.063
1923	-255.063
1924	-178.063
1925	-54.0625
1926	80.9375
1927	198.938
1928	274.938
1929	289.938
1930	241.938
1931	145.938
1932	20.9375
1933	-101.063
1934	-206.063
1935	-272.063
1936	-290.063
1937	-262.063
1938	-187.063
1939	-93.0625
1940	10.9375
1941	99.9375
1942	163.938
1943	184.938
1944	167.938
1945	101.938
1946	14.9375
1947	-82.0625
1948	-163.063
1949	-214.063
1950	-216.063
1951	-161.063
1952	-68.0625
1953	57.9375
1954	175.938
1955	260.938
1956	288.938
1957	254.938
1958	161.938
1959	32.9375
1960	-101.063
1961	-212.063
1962	-270.063
1963	-264.063
1964	-202.063
1965	-96.0625
1966	32.9375
1967	161.938
1968	265.938
1969	321.938
1970	328.938
1971	276.938
1972	176.938
1973	41.9375
1974	-112.063
1975	-246.063
1976	-337.063
1977	-362.063
1978	-314.063
1979	-201.063
1980	-54.0625
1981	89.9375
1982	187.938
1983	222.938
1984	181.938
1985	83.9375
1986	-49.0625
1987	-166.063
1988	-235.063
1989	-238.063
1990	-175.063
1991	-65.0625
1992	63.9375
1993	190.938
1994	287.938
1995	345.938
1996	354.938
1997	324.938
1998	251.938
1999	146.938
2000	12.9375
2001	-132.063
2002	-269.063
2003	-378.063
2004	-424.063
2005	-396.063
2006	-280.063
2007	-99.0625
2008	110.938
2009	305.938
2010	426.938
2011	442.938
2012	347.938
2013	174.938
2014	-32.0625
2015	-208.063
2016	-310.063
2017	-324.063
2018	-254.063
2019	-144.063
2020	-38.0625
2021	30.9375
2022	37.9375
2023	-7.0625
2024	-69.0625
2025	-122.063
2026	-138.063
2027	-128.063
2028	-103.063
2029	-82.0625
2030	-77.0625
2031	-73.0625
2032	-60.0625
2033	-2.0625
2034	105.938
2035	249.938
2036	381.938
2037	435.938
2038	364.938
2039	147.938
2040	-175.063
2041	-520.063
2042	-785.063
2043	-880.063
2044	-785.063
2045	-511.063
2046	-134.063
2047	261.938
2048	585.938
2049	800.938
2050	908.938
2051	939.938
2052	939.938
2053	930.938
2054	900.938
2055	806.938
2056	629.938
2057	406.938
2058	202.938
2059	95.9375
2060	126.938
2061	251.938
2062	390.938
2063	454.938
2064	380.938
2065	150.938
2066	-196.063
2067	-554.063
2068	-785.063
2069	-809.063
2070	-724.063
2071	-825.063
2072	-1470.06
2073	-2853.06
2074	-4833.06
2075	-6958.06
2076	-8662.06
2077	-9417.06
2078	-8728.06
2079	-6166.06
2080	-1479.06
2081	5073.94
2082	12348.9
2083	18447.9
2084	21369.9
2085	20008.9
2086	14712.9
2087	7164.94
2088	-420.063
2089	-6328.06
2090	-9797.06
2091	-10956.1
2092	-10359.1
2093	-8619.06
2094	-6293.06
2095	-3911.06
2096	-1957.06
2097	-739.063
2098	-249.063
2099	-220.063
2100	-293.063
2101	-222.063
2102	17.9375
2103	326.938
2104	577.938
2105	700.938
2106	694.938
2107	593.938
2108	462.938
2109	373.938
2110	385.938
2111	503.938
2112	690.938
2113	866.938
2114	970.938
2115	997.938
2116	965.938
2117	907.938
2118	831.938
2119	711.938
2120	517.938
2121	237.938
2122	-112.063
2123	-470.063
2124	-765.063
2125	-916.063
2126	-881.063
2127	-675.063
2128	-347.063
2129	9.9375
2130	294.938
2131	443.938
2132	448.938
2133	336.938
2134	168.938
2135	10.9375
2136	-97.0625
2137	-152.063
2138	-163.063
2139	-154.063
2140	-150.063
2141	-153.063
2142	-150.063
2143	-128.063
2144	-84.0625
2145	-25.0625
2146	31.9375
2147	56.9375
2148	24.9375
2149	-62.0625
2150	-169.063
2151	-254.063
2152	-283.063
2153	-229.063
2154	-97.0625
2155	79.9375
2156	257.938
2157	386.938
2158	418.938
2159	348.938
2160	187.938
2161	-16.0625
2162	-209.063
2163	-354.063
2164	-413.063
2165	-391.063
2166	-297.063
2167	-159.063
2168	-3.0625
2169	142.938
2170	262.938
2171	341.938
2172	375.938
2173	364.938
2174	305.938
2175	210.938
2176	88.9375
2177	-43.0625
2178	-166.063
2179	-242.063
2180	-263.063
2181	-218.063
2182	-119.063
2183	10.9375
2184	129.938
2185	200.938
2186	205.938
2187	138.938
2188	16.9375
2189	-131.063
2190	-263.063
2191	-341.063
2192	-344.063
2193	-275.063
2194	-152.063
2195	-5.0625
2196	143.938
2197	258.938
2198	327.938
2199	340.938
2200	297.938
2201	202.938
2202	79.9375
2203	-52.0625
2204	-169.063
2205	-249.063
2206	-277.063
2207	-239.063
2208	-149.063
2209	-25.0625
2210	104.938
2211	212.938
2212	273.938
2213	269.938
2214	202.938
2215	94.9375
2216	-28.0625
2217	-141.063
2218	-211.063
2219	-238.063
2220	-204.063
2221	-125.063
2222	-25.0625
2223	71.9375
2224	146.938
2225	184.938
2226	178.938
2227	128.938
2228	43.9375
2229	-61.0625
2230	-165.063
2231	-242.063
2232	-287.063
2233	-285.063
2234	-228.063
2235	-133.063
2236	-10.0625
2237	112.938
2238	222.938
2239	294.938
2240	302.938
2241	249.938
2242	144.938
2243	14.9375
2244	-116.063
2245	-216.063
2246	-260.063
2247	-235.063
2248	-155.063
2249	-37.0625
2250	93.9375
2251	203.938
2252	267.938
2253	273.938
2254	225.938
2255	139.938
2256	34.9375
2257	-63.0625
2258	-139.063
2259	-175.063
2260	-175.063
2261	-143.063
2262	-78.0625
2263	-5.0625
2264	67.9375
2265	124.938
2266	145.938
2267	128.938
2268	73.9375
2269	-9.0625
2270	-100.063
2271	-180.063
2272	-229.063
2273	-233.063
2274	-182.063
2275	-91.0625
2276	24.9375
2277	140.938
2278	232.938
2279	290.938
2280	292.938
2281	236.938
2282	142.938
2283	18.9375
2284	-107.063
2285	-215.063
2286	-281.063
2287	-292.063
2288	-257.063
2289	-179.063
2290	-76.0625
2291	28.9375
2292	109.938
2293	158.938
2294	165.938
2295	130.938
2296	64.9375
2297	-2.0625
2298	-63.0625
2299	-96.0625
2300	-95.0625
2301	-62.0625
2302	-1.0625
2303	68.9375
2304	136.938
2305	183.938
2306	197.938
2307	176.938
2308	122.938
2309	39.9375
2310	-60.0625
2311	-150.063
2312	-219.063
2313	-250.063
2314	-237.063
2315	-182.063
2316	-94.0625
2317	11.9375
2318	106.938
2319	181.938
2320	219.938
2321	214.938
2322	168.938
2323	86.9375
2324	-10.0625
2325	-101.063
2326	-160.063
2327	-185.063
2328	-165.063
2329	-109.063
2330	-27.0625
2331	57.9375
2332	122.938
2333	149.938
2334	141.938
2335	99.9375
2336	43.9375
2337	-17.0625
2338	-75.0625
2339	-105.063
2340	-108.063
2341	-93.0625
2342	-60.0625
2343	-16.0625
2344	30.9375
2345	69.9375
2346	106.938
2347	120.938
2348	106.938
2349	67.9375
2350	1.9375
2351	-78.0625
2352	-152.063
2353	-203.063
2354	-215.063
2355	-174.063
2356	-89.0625
2357	14.9375
2358	119.938
2359	202.938
2360	236.938
2361	220.938
2362	158.938
2363	68.9375
2364	-18.0625
2365	-87.0625
2366	-135.063
2367	-147.063
2368	-129.063
2369	-99.0625
2370	-57.0625
2371	-13.0625
2372	22.9375
2373	48.9375
2374	66.9375
2375	73.9375
2376	66.9375
2377	42.9375
2378	9.9375
2379	-27.0625
2380	-55.0625
2381	-67.0625
2382	-57.0625
2383	-23.0625
2384	27.9375
2385	79.9375
2386	118.938
2387	132.938
2388	112.938
2389	56.9375
2390	-21.0625
2391	-100.063
2392	-164.063
2393	-198.063
2394	-188.063
2395	-143.063
2396	-71.0625
2397	10.9375
2398	87.9375
2399	144.938
2400	172.938
2401	172.938
2402	148.938
2403	103.938
2404	50.9375
2405	-3.0625
2406	-48.0625
2407	-82.0625
2408	-105.063
2409	-118.063
2410	-100.063
2411	-72.0625
2412	-36.0625
2413	5.9375
2414	39.9375
2415	55.9375
2416	44.9375
2417	12.9375
2418	-26.0625
2419	-66.0625
2420	-89.0625
2421	-93.0625
2422	-65.0625
2423	-12.0625
2424	50.9375
2425	101.938
2426	131.938
2427	131.938
2428	99.9375
2429	50.9375
2430	-5.0625
2431	-53.0625
2432	-82.0625
2433	-90.0625
2434	-84.0625
2435	-63.0625
2436	-37.0625
2437	-10.0625
2438	20.9375
2439	49.9375
2440	71.9375
2441	87.9375
2442	97.9375
2443	82.9375
2444	49.9375
2445	2.9375
2446	-44.0625
2447	-87.0625
2448	-105.063
2449	-103.063
2450	-78.0625
2451	-33.0625
2452	16.9375
2453	57.9375
2454	74.9375
2455	68.9375
2456	48.9375
2457	16.9375
2458	-15.0625
2459	-37.0625
2460	-47.0625
2461	-39.0625
2462	-20.0625
2463	-2.0625
2464	18.9375
2465	33.9375
2466	44.9375
2467	46.9375
2468	37.9375
2469	20.9375
2470	-5.0625
2471	-37.0625
2472	-64.0625
2473	-87.0625
2474	-98.0625
2475	-91.0625
2476	-69.0625
2477	-33.0625
2478	14.9375
2479	58.9375
2480	93.9375
2481	109.938
2482	105.938
2483	79.9375
2484	45.9375
2485	4.9375
2486	-31.0625
2487	-57.0625
2488	-61.0625
2489	-51.0625
2490	-37.0625
2491	-17.0625
2492	-0.0625
2493	8.9375
2494	5.9375
2495	-1.0625
2496	-7.0625
2497	-10.0625
2498	-7.0625
2499	-0.0625
2500	9.9375
2501	13.9375
2502	18.9375
2503	19.9375
2504	20.9375
2505	21.9375
2506	26.9375
2507	32.9375
2508	33.9375
2509	25.9375
2510	7.9375
2511	-21.0625
2512	-51.0625
2513	-77.0625
2514	-82.0625
2515	-69.0625
2516	-40.0625
2517	-2.0625
2518	38.9375
2519	67.9375
2520	83.9375
2521	70.9375
2522	49.9375
2523	18.9375
2524	-8.0625
2525	-30.0625
2526	-43.0625
2527	-49.0625
2528	-46.0625
2529	-37.0625
2530	-29.0625
2531	-25.0625
2532	-13.0625
2533	0.9375
2534	16.9375
2535	28.9375
2536	40.9375
2537	38.9375
2538	26.9375
2539	9.9375
2540	-5.0625
2541	-9.0625
2542	-9.0625
2543	-2.0625
2544	6.9375
2545	14.9375
2546	17.9375
2547	7.9375
2548	-9.0625
2549	-29.0625
2550	-41.0625
2551	-50.0625
2552	-45.0625
2553	-30.0625
2554	-8.0625
2555	14.9375
2556	36.9375
2557	50.9375
2558	60.9375
2559	54.9375
2560	42.9375
2561	30.9375
2562	10.9375
2563	-8.0625
2564	-22.0625
2565	-37.0625
2566	-44.0625
2567	-45.0625
2568	-43.0625
2569	-32.0625
2570	-21.0625
2571	-9.0625
2572	8.9375
2573	27.9375
2574	39.9375
2575	46.9375
2576	42.9375
2577	29.9375
2578	12.9375
2579	-0.0625
2580	-10.0625
2581	-14.0625
2582	-5.0625
2583	4.9375
2584	11.9375
2585	20.9375
2586	9.9375
2587	-9.0625
2588	-31.0625
2589	-50.0625
2590	-63.0625
2591	-61.0625
2592	-46.0625
2593	-19.0625
2594	5.9375
2595	26.9375
2596	42.9375
2597	51.9375
2598	48.9375
2599	43.9375
2600	36.9375
2601	25.9375
2602	8.9375
2603	-10.0625
2604	-31.0625
2605	-51.0625
2606	-65.0625
2607	-66.0625
2608	-51.0625
2609	-30.0625
2610	-0.0625
2611	28.9375
2612	49.9375
2613	49.9375
2614	40.9375
2615	22.9375
2616	5.9375
2617	-4.0625
2618	-4.0625
2619	4.9375
2620	13.9375
2621	26.9375
2622	36.9375
2623	30.9375
2624	17.9375
2625	5.9375
2626	-9.0625
2627	-25.0625
2628	-34.0625
2629	-39.0625
2630	-42.0625
2631	-46.0625
2632	-45.0625
2633	-33.0625
2634	-18.0625
2635	8.9375
2636	34.9375
2637	52.9375
2638	67.9375
2639	70.9375
2640	57.9375
2641	29.9375
2642	3.9375
2643	-26.0625
2644	-52.0625
2645	-67.0625
2646	-69.0625
2647	-59.0625
2648	-40.0625
2649	-18.0625
2650	4.9375
2651	19.9375
2652	29.9375
2653	29.9375
2654	20.9375
2655	11.9375
2656	-1.0625
2657	-11.0625
2658	-17.0625
2659	-14.0625
2660	0.9375
2661	13.9375
2662	25.9375
2663	37.9375
2664	42.9375
2665	39.9375
2666	30.9375
2667	9.9375
2668	-12.0625
2669	-34.0625
2670	-53.0625
2671	-67.0625
2672	-68.0625
2673	-52.0625
2674	-27.0625
2675	-1.0625
2676	28.9375
2677	53.9375
2678	67.9375
2679	71.9375
2680	56.9375
2681	31.9375
2682	5.9375
2683	-19.0625
2684	-33.0625
2685	-37.0625
2686	-34.0625
2687	-22.0625
2688	-7.0625
2689	8.9375
2690	14.9375
2691	16.9375
2692	16.9375
2693	9.9375
2694	-0.0625
2695	-10.0625
2696	-26.0625
2697	-43.0625
2698	-50.0625
2699	-48.0625
2700	-38.0625
2701	-15.0625
2702	12.9375
2703	39.9375
2704	62.9375
2705	68.9375
2706	62.9375
2707	44.9375
2708	17.9375
2709	-10.0625
2710	-38.0625
2711	-58.0625
2712	-65.0625
2713	-64.0625
2714	-50.0625
2715	-27.0625
2716	-3.0625
2717	19.9375
2718	39.9375
2719	45.9375
2720	48.9375
2721	41.9375
2722	21.9375
2723	10.9375
2724	-6.0625
2725	-13.0625
2726	-9.0625
2727	-1.0625
2728	11.9375
2729	24.9375
2730	31.9375
2731	35.9375
2732	28.9375
2733	11.9375
2734	-16.0625
2735	-45.0625
2736	-63.0625
2737	-78.0625
2738	-82.0625
2739	-70.0625
2740	-42.0625
2741	-5.0625
2742	30.9375
2743	63.9375
2744	82.9375
2745	91.9375
2746	84.9375
2747	63.9375
2748	33.9375
2749	0.9375
2750	-33.0625
2751	-65.0625
2752	-82.0625
2753	-89.0625
2754	-84.0625
2755	-66.0625
2756	-39.0625
2757	-12.0625
2758	22.9375
2759	45.9375
2760	53.9375
2761	54.9375
2762	46.9375
2763	33.9375
2764	16.9375
2765	7.9375
2766	-0.0625
2767	2.9375
2768	18.9375
2769	21.9375
2770	27.9375
2771	23.9375
2772	10.9375
2773	-5.0625
2774	-29.0625
2775	-49.0625
2776	-61.0625
2777	-70.0625
2778	-64.0625
2779	-51.0625
2780	-26.0625
2781	4.9375
2782	33.9375
2783	57.9375
2784	79.9375
2785	90.9375
2786	83.9375
2787	61.9375
2788	32.9375
2789	-5.0625
2790	-41.0625
2791	-70.0625
2792	-89.0625
2793	-91.0625
2794	-76.0625
2795	-51.0625
2796	-15.0625
2797	17.9375
2798	39.9375
2799	52.9375
2800	51.9375
2801	39.9375
2802	24.9375
2803	9.9375
2804	-8.0625
2805	-17.0625
2806	-24.0625
2807	-23.0625
2808	-11.0625
2809	-0.0625
2810	8.9375
2811	20.9375
2812	30.9375
2813	31.9375
2814	20.9375
2815	7.9375
2816	-12.0625
2817	-26.0625
2818	-37.0625
2819	-48.0625
2820	-41.0625
2821	-20.0625
2822	-1.0625
2823	21.9375
2824	38.9375
2825	44.9375
2826	40.9375
2827	29.9375
2828	10.9375
2829	-13.0625
2830	-33.0625
2831	-44.0625
2832	-42.0625
2833	-32.0625
2834	-12.0625
2835	8.9375
2836	25.9375
2837	42.9375
2838	46.9375
2839	44.9375
2840	37.9375
2841	20.9375
2842	-1.0625
2843	-26.0625
2844	-45.0625
2845	-59.0625
2846	-65.0625
2847	-54.0625
2848	-36.0625
2849	-12.0625
2850	13.9375
2851	39.9375
2852	54.9375
2853	62.9375
2854	52.9375
2855	32.9375
2856	6.9375
2857	-14.0625
2858	-34.0625
2859	-44.0625
2860	-41.0625
2861	-32.0625
2862	-17.0625
2863	-1.0625
2864	9.9375
2865	19.9375
2866	23.9375
2867	18.9375
2868	9.9375
2869	-1.0625
2870	-10.0625
2871	-23.0625
2872	-30.0625
2873	-24.0625
2874	-14.0625
2875	-1.0625
2876	19.9375
2877	37.9375
2878	50.9375
2879	53.9375
2880	43.9375
2881	25.9375
2882	1.9375
2883	-24.0625
2884	-50.0625
2885	-63.0625
2886	-66.0625
2887	-53.0625
2888	-30.0625
2889	-0.0625
2890	27.9375
2891	45.9375
2892	52.9375
2893	52.9375
2894	44.9375
2895	29.9375
2896	10.9375
2897	-5.0625
2898	-16.0625
2899	-28.0625
2900	-35.0625
2901	-31.0625
2902	-27.0625
2903	-23.0625
2904	-15.0625
2905	-4.0625
2906	3.9375
2907	3.9375
2908	1.9375
2909	-4.0625
2910	-13.0625
2911	-15.0625
2912	-17.0625
2913	-10.0625
2914	5.9375
2915	25.9375
2916	45.9375
2917	62.9375
2918	67.9375
2919	61.9375
2920	45.9375
2921	19.9375
2922	-11.0625
2923	-46.0625
2924	-66.0625
2925	-83.0625
2926	-80.0625
2927	-70.0625
2928	-55.0625
2929	-30.0625
2930	1.9375
2931	32.9375
2932	50.9375
2933	62.9375
2934	66.9375
2935	56.9375
2936	42.9375
2937	19.9375
2938	3.9375
2939	-18.0625
2940	-30.0625
2941	-36.0625
2942	-31.0625
2943	-21.0625
2944	-8.0625
2945	0.9375
2946	4.9375
2947	6.9375
2948	-1.0625
2949	-13.0625
2950	-22.0625
2951	-27.0625
2952	-25.0625
2953	-17.0625
2954	-0.0625
2955	20.9375
2956	38.9375
2957	48.9375
2958	50.9375
2959	40.9375
2960	30.9375
2961	16.9375
2962	-1.0625
2963	-22.0625
2964	-35.0625
2965	-44.0625
2966	-47.0625
2967	-42.0625
2968	-31.0625
2969	-17.0625
2970	-1.0625
2971	16.9375
2972	33.9375
2973	41.9375
2974	39.9375
2975	26.9375
2976	11.9375
2977	-7.0625
2978	-25.0625
2979	-36.0625
2980	-35.0625
2981	-27.0625
2982	-14.0625
2983	4.9375
2984	21.9375
2985	36.9375
2986	36.9375
2987	29.9375
2988	16.9375
2989	-0.0625
2990	-15.0625
2991	-31.0625
2992	-38.0625
2993	-36.0625
2994	-30.0625
2995	-16.0625
2996	1.9375
2997	19.9375
2998	35.9375
2999	43.9375
3000	45.9375
3001	39.9375
3002	20.9375
3003	4.9375
3004	-13.0625
3005	-25.0625
3006	-35.0625
3007	-35.0625
3008	-28.0625
3009	-16.0625
3010	-0.0625
3011	9.9375
3012	16.9375
3013	15.9375
3014	16.9375
3015	7.9375
3016	-4.0625
3017	-14.0625
3018	-22.0625
3019	-23.0625
3020	-17.0625
3021	-11.0625
3022	3.9375
3023	17.9375
3024	25.9375
3025	31.9375
3026	27.9375
3027	22.9375
3028	12.9375
3029	0.9375
3030	-14.0625
3031	-26.0625
3032	-35.0625
3033	-41.0625
3034	-31.0625
3035	-22.0625
3036	-7.0625
3037	8.9375
3038	25.9375
3039	37.9375
3040	41.9375
3041	36.9375
3042	27.9375
3043	8.9375
3044	-10.0625
3045	-29.0625
3046	-37.0625
3047	-33.0625
3048	-24.0625
3049	-13.0625
3050	2.9375
3051	18.9375
3052	24.9375
3053	27.9375
3054	25.9375
3055	14.9375
3056	4.9375
3057	-6.0625
3058	-17.0625
3059	-27.0625
3060	-30.0625
3061	-21.0625
3062	-19.0625
3063	-11.0625
3064	-0.0625
3065	11.9375
3066	18.9375
3067	29.9375
3068	24.9375
3069	17.9375
3070	4.9375
3071	-9.0625
3072	-11.0625
3073	-10.0625
3074	-6.0625
3075	0.9375
3076	5.9375
3077	14.9375
3078	15.9375
3079	10.9375
3080	-0.0625
3081	-10.0625
3082	-14.0625
3083	-23.0625
3084	-32.0625
3085	-33.0625
3086	-34.0625
3087	-27.0625
3088	-12.0625
3089	4.9375
3090	23.9375
3091	42.9375
3092	54.9375
3093	63.9375
3094	57.9375
3095	40.9375
3096	18.9375
3097	-9.0625
3098	-32.0625
3099	-47.0625
3100	-54.0625
3101	-55.0625
3102	-49.0625
3103	-33.0625
3104	-18.0625
3105	1.9375
3106	15.9375
3107	24.9375
3108	32.9375
3109	36.9375
3110	35.9375
3111	29.9375
3112	15.9375
3113	1.9375
3114	-6.0625
3115	-5.0625
3116	-1.0625
3117	3.9375
3118	0.9375
3119	3.9375
3120	-2.0625
3121	-10.0625
3122	-20.0625
3123	-25.0625
3124	-30.0625
3125	-25.0625
3126	-17.0625
3127	-9.0625
3128	-2.0625
3129	4.9375
3130	14.9375
3131	20.9375
3132	26.9375
3133	22.9375
3134	20.9375
3135	10.9375
3136	-3.0625
3137	-15.0625
3138	-26.0625
3139	-35.0625
3140	-32.0625
3141	-24.0625
3142	-11.0625
3143	8.9375
3144	25.9375
3145	40.9375
3146	48.9375
3147	46.9375
3148	32.9375
3149	18.9375
3150	4.9375
3151	-12.0625
3152	-23.0625
3153	-34.0625
3154	-40.0625
3155	-40.0625
3156	-33.0625
3157	-27.0625
3158	-14.0625
3159	1.9375
3160	15.9375
3161	22.9375
3162	32.9375
3163	34.9375
3164	28.9375
3165	16.9375
3166	3.9375
3167	-3.0625
3168	-4.0625
3169	-5.0625
3170	-5.0625
3171	-7.0625
3172	-7.0625
3173	-15.0625
3174	-20.0625
3175	-29.0625
3176	-31.0625
3177	-29.0625
3178	-26.0625
3179	-17.0625
3180	-6.0625
3181	4.9375
3182	19.9375
3183	32.9375
3184	38.9375
3185	46.9375
3186	52.9375
3187	47.9375
3188	35.9375
3189	16.9375
3190	-2.0625
3191	-26.0625
3192	-43.0625
3193	-52.0625
3194	-54.0625
3195	-47.0625
3196	-34.0625
3197	-20.0625
3198	-4.0625
3199	11.9375
3200	21.9375
3201	30.9375
3202	33.9375
3203	33.9375
3204	31.9375
3205	25.9375
3206	18.9375
3207	11.9375
3208	-2.0625
3209	-8.0625
3210	-11.0625
3211	-15.0625
3212	-16.0625
3213	-12.0625
3214	-16.0625
3215	-18.0625
3216	-22.0625
3217	-24.0625
3218	-26.0625
3219	-24.0625
3220	-15.0625
3221	-3.0625
3222	9.9375
3223	21.9375
3224	30.9375
3225	37.9375
3226	34.9375
3227	32.9375
3228	24.9375
3229	13.9375
3230	1.9375
3231	-6.0625
3232	-16.0625
3233	-27.0625
3234	-35.0625
3235	-38.0625
3236	-34.0625
3237	-21.0625
3238	-8.0625
3239	3.9375
3240	15.9375
3241	25.9375
3242	25.9375
3243	22.9375
3244	15.9375
3245	9.9375
3246	4.9375
3247	1.9375
3248	-0.0625
3249	0.9375
3250	1.9375
3251	0.9375
3252	-1.0625
3253	0.9375
3254	0.9375
3255	-4.0625
3256	-8.0625
3257	-9.0625
3258	-7.0625
3259	-11.0625
3260	-13.0625
3261	-12.0625
3262	-7.0625
3263	-4.0625
3264	2.9375
3265	11.9375
3266	18.9375
3267	14.9375
3268	11.9375
3269	5.9375
3270	-4.0625
3271	-11.0625
3272	-17.0625
3273	-17.0625
3274	-15.0625
3275	-11.0625
3276	-2.0625
3277	5.9375
3278	8.9375
3279	14.9375
3280	11.9375
3281	13.9375
3282	11.9375
3283	6.9375
3284	2.9375
3285	-0.0625
3286	-4.0625
3287	-13.0625
3288	-17.0625
3289	-15.0625
3290	-10.0625
3291	-4.0625
3292	4.9375
3293	12.9375
3294	16.9375
3295	15.9375
3296	9.9375
3297	6.9375
3298	-0.0625
3299	-2.0625
3300	-3.0625
3301	-4.0625
3302	-0.0625
3303	-0.0625
3304	3.9375
3305	3.9375
3306	3.9375
3307	5.9375
3308	7.9375
3309	4.9375
3310	-3.0625
3311	-7.0625
3312	-13.0625
3313	-23.0625
3314	-26.0625
3315	-25.0625
3316	-20.0625
3317	-10.0625
3318	-3.0625
3319	7.9375
3320	16.9375
3321	22.9375
3322	22.9375
3323	22.9375
3324	14.9375
3325	8.9375
3326	6.9375
3327	1.9375
3328	-2.0625
3329	-9.0625
3330	-15.0625
3331	-20.0625
3332	-21.0625
3333	-20.0625
3334	-10.0625
3335	-4.0625
3336	-2.0625
3337	-0.0625
3338	5.9375
3339	5.9375
3340	6.9375
3341	14.9375
3342	21.9375
3343	32.9375
3344	32.9375
3345	29.9375
3346	19.9375
3347	4.9375
3348	-7.0625
3349	-22.0625
3350	-31.0625
3351	-35.0625
3352	-35.0625
3353	-34.0625
3354	-25.0625
3355	-17.0625
3356	-9.0625
3357	3.9375
3358	14.9375
3359	30.9375
3360	39.9375
3361	40.9375
3362	36.9375
3363	21.9375
3364	4.9375
3365	-12.0625
3366	-25.0625
3367	-38.0625
3368	-46.0625
3369	-41.0625
3370	-31.0625
3371	-21.0625
3372	-10.0625
3373	4.9375
3374	20.9375
3375	34.9375
3376	42.9375
3377	43.9375
3378	37.9375
3379	27.9375
3380	11.9375
3381	-4.0625
3382	-17.0625
3383	-28.0625
3384	-37.0625
3385	-35.0625
3386	-30.0625
3387	-23.0625
3388	-13.0625
3389	-3.0625
3390	4.9375
3391	17.9375
3392	25.9375
3393	32.9375
3394	38.9375
3395	35.9375
3396	32.9375
3397	25.9375
3398	15.9375
3399	2.9375
3400	-14.0625
3401	-25.0625
3402	-35.0625
3403	-44.0625
3404	-48.0625
3405	-46.0625
3406	-39.0625
3407	-25.0625
3408	-13.0625
3409	2.9375
3410	17.9375
3411	34.9375
3412	43.9375
3413	49.9375
3414	48.9375
3415	40.9375
3416	24.9375
3417	10.9375
3418	-2.0625
3419	-22.0625
3420	-38.0625
3421	-45.0625
3422	-48.0625
3423	-47.0625
3424	-38.0625
3425	-26.0625
3426	-10.0625
3427	3.9375
3428	22.9375
3429	35.9375
3430	40.9375
3431	40.9375
3432	36.9375
3433	27.9375
3434	18.9375
3435	8.9375
3436	-4.0625
3437	-8.0625
3438	-12.0625
3439	-15.0625
3440	-19.0625
3441	-22.0625
3442	-18.0625
3443	-11.0625
3444	-11.0625
3445	-4.0625
3446	2.9375
3447	5.9375
3448	9.9375
3449	11.9375
3450	8.9375
3451	6.9375
3452	8.9375
3453	12.9375
3454	9.9375
3455	7.9375
3456	4.9375
3457	-2.0625
3458	-7.0625
3459	-13.0625
3460	-24.0625
3461	-27.0625
3462	-24.0625
3463	-20.0625
3464	-13.0625
3465	-5.0625
3466	4.9375
3467	10.9375
3468	15.9375
3469	20.9375
3470	20.9375
3471	20.9375
3472	22.9375
3473	21.9375
3474	13.9375
3475	4.9375
3476	-7.0625
3477	-16.0625
3478	-21.0625
3479	-21.0625
3480	-19.0625
3481	-14.0625
3482	-9.0625
3483	-7.0625
3484	-3.0625
3485	0.9375
3486	3.9375
3487	6.9375
3488	11.9375
3489	20.9375
3490	22.9375
3491	19.9375
3492	16.9375
3493	13.9375
3494	8.9375
3495	5.9375
3496	-0.0625
3497	-6.0625
3498	-15.0625
3499	-22.0625
3500	-31.0625
3501	-33.0625
3502	-40.0625
3503	-36.0625
3504	-24.0625
3505	-9.0625
3506	-0.0625
3507	13.9375
3508	30.9375
3509	40.9375
3510	43.9375
3511	41.9375
3512	33.9375
3513	24.9375
3514	12.9375
3515	0.9375
3516	-13.0625
3517	-26.0625
3518	-32.0625
3519	-43.0625
3520	-43.0625
3521	-34.0625
3522	-28.0625
3523	-12.0625
3524	0.9375
3525	11.9375
3526	21.9375
3527	29.9375
3528	27.9375
3529	30.9375
3530	30.9375
3531	29.9375
3532	25.9375
3533	16.9375
3534	8.9375
3535	-1.0625
3536	-13.0625
3537	-23.0625
3538	-32.0625
3539	-38.0625
3540	-36.0625
3541	-31.0625
3542	-23.0625
3543	-14.0625
3544	-6.0625
3545	3.9375
3546	11.9375
3547	20.9375
3548	25.9375
3549	35.9375
3550	41.9375
3551	38.9375
3552	32.9375
3553	20.9375
3554	1.9375
3555	-20.0625
3556	-39.0625
3557	-45.0625
3558	-47.0625
3559	-41.0625
3560	-30.0625
3561	-17.0625
3562	-6.0625
3563	-2.0625
3564	5.9375
3565	12.9375
3566	20.9375
3567	26.9375
3568	33.9375
3569	32.9375
3570	30.9375
3571	19.9375
3572	6.9375
3573	-5.0625
3574	-11.0625
3575	-12.0625
3576	-9.0625
3577	-6.0625
3578	0.9375
3579	-0.0625
3580	-7.0625
3581	-14.0625
3582	-20.0625
3583	-19.0625
3584	-15.0625
3585	-3.0625
3586	7.9375
3587	11.9375
3588	14.9375
3589	13.9375
3590	10.9375
3591	5.9375
3592	7.9375
3593	9.9375
3594	16.9375
3595	18.9375
3596	11.9375
3597	-1.0625
3598	-13.0625
3599	-23.0625
3600	-24.0625
3601	-21.0625
3602	-14.0625
3603	-6.0625
3604	-2.0625
3605	-3.0625
3606	-6.0625
3607	-10.0625
3608	-16.0625
3609	-18.0625
3610	-11.0625
3611	-0.0625
3612	11.9375
3613	20.9375
3614	24.9375
3615	25.9375
3616	23.9375
3617	27.9375
3618	25.9375
3619	27.9375
3620	20.9375
3621	9.9375
3622	-3.0625
3623	-18.0625
3624	-33.0625
3625	-46.0625
3626	-53.0625
3627	-44.0625
3628	-33.0625
3629	-15.0625
3630	0.9375
3631	11.9375
3632	22.9375
3633	22.9375
3634	27.9375
3635	32.9375
3636	36.9375
3637	39.9375
3638	35.9375
3639	27.9375
3640	17.9375
3641	1.9375
3642	-11.0625
3643	-24.0625
3644	-32.0625
3645	-35.0625
3646	-38.0625
3647	-38.0625
3648	-39.0625
3649	-39.0625
3650	-39.0625
3651	-32.0625
3652	-20.0625
3653	-4.0625
3654	20.9375
3655	40.9375
3656	58.9375
3657	69.9375
3658	64.9375
3659	56.9375
3660	45.9375
3661	31.9375
3662	14.9375
3663	-1.0625
3664	-21.0625
3665	-36.0625
3666	-54.0625
3667	-65.0625
3668	-71.0625
3669	-70.0625
3670	-57.0625
3671	-37.0625
3672	-12.0625
3673	12.9375
3674	34.9375
3675	46.9375
3676	53.9375
3677	55.9375
3678	60.9375
3679	56.9375
3680	51.9375
3681	45.9375
3682	32.9375
3683	12.9375
3684	-7.0625
3685	-31.0625
3686	-51.0625
3687	-68.0625
3688	-79.0625
3689	-76.0625
3690	-67.0625
3691	-57.0625
3692	-38.0625
3693	-18.0625
3694	6.9375
3695	28.9375
3696	51.9375
3697	68.9375
3698	82.9375
3699	86.9375
3700	78.9375
3701	59.9375
3702	30.9375
3703	0.9375
3704	-31.0625
3705	-57.0625
3706	-71.0625
3707	-76.0625
3708	-74.0625
3709	-63.0625
3710	-52.0625
3711	-32.0625
3712	-7.0625
3713	17.9375
3714	37.9375
3715	56.9375
3716	63.9375
3717	66.9375
3718	60.9375
3719	45.9375
3720	29.9375
3721	9.9375
3722	-9.0625
3723	-23.0625
3724	-32.0625
3725	-37.0625
3726	-41.0625
3727	-44.0625
3728	-42.0625
3729	-34.0625
3730	-22.0625
3731	-7.0625
3732	6.9375
3733	22.9375
3734	37.9375
3735	39.9375
3736	38.9375
3737	36.9375
3738	28.9375
3739	15.9375
3740	3.9375
3741	-10.0625
3742	-26.0625
3743	-35.0625
3744	-44.0625
3745	-48.0625
3746	-45.0625
3747	-36.0625
3748	-14.0625
3749	4.9375
3750	25.9375
3751	41.9375
3752	49.9375
3753	51.9375
3754	44.9375
3755	28.9375
3756	14.9375
3757	-0.0625
3758	-13.0625
3759	-25.0625
3760	-40.0625
3761	-46.0625
3762	-45.0625
3763	-36.0625
3764	-26.0625
3765	-10.0625
3766	9.9375
3767	26.9375
3768	37.9375
3769	44.9375
3770	39.9375
3771	32.9375
3772	25.9375
3773	12.9375
3774	5.9375
3775	1.9375
3776	-5.0625
3777	-14.0625
3778	-14.0625
3779	-23.0625
3780	-28.0625
3781	-29.0625
3782	-26.0625
3783	-15.0625
3784	-10.0625
3785	-6.0625
3786	-1.0625
3787	4.9375
3788	4.9375
3789	9.9375
3790	8.9375
3791	14.9375
3792	19.9375
3793	19.9375
3794	12.9375
3795	6.9375
3796	-4.0625
3797	-10.0625
3798	-14.0625
3799	-9.0625
3800	-9.0625
3801	-5.0625
3802	1.9375
3803	5.9375
3804	10.9375
3805	7.9375
3806	2.9375
3807	-4.0625
3808	-8.0625
3809	-14.0625
3810	-15.0625
3811	-15.0625
3812	-18.0625
3813	-14.0625
3814	-13.0625
3815	-2.0625
3816	16.9375
3817	39.9375
3818	54.9375
3819	59.9375
3820	60.9375
3821	47.9375
3822	28.9375
3823	5.9375
3824	-15.0625
3825	-36.0625
3826	-53.0625
3827	-70.0625
3828	-75.0625
3829	-71.0625
3830	-66.0625
3831	-51.0625
3832	-28.0625
3833	-4.0625
3834	28.9375
3835	54.9375
3836	71.9375
3837	77.9375
3838	72.9375
3839	65.9375
3840	53.9375
3841	38.9375
3842	19.9375
3843	-0.0625
3844	-25.0625
3845	-44.0625
3846	-66.0625
3847	-86.0625
3848	-93.0625
3849	-88.0625
3850	-76.0625
3851	-52.0625
3852	-28.0625
3853	-0.0625
3854	32.9375
3855	60.9375
3856	86.9375
3857	99.9375
3858	105.938
3859	103.938
3860	97.9375
3861	74.9375
3862	35.9375
3863	-6.0625
3864	-46.0625
3865	-83.0625
3866	-107.063
3867	-118.063
3868	-114.063
3869	-102.063
3870	-79.0625
3871	-50.0625
3872	-16.0625
3873	18.9375
3874	53.9375
3875	79.9375
3876	99.9375
3877	107.938
3878	98.9375
3879	83.9375
3880	60.9375
3881	32.9375
3882	1.9375
3883	-27.0625
3884	-52.0625
3885	-70.0625
3886	-80.0625
3887	-88.0625
3888	-92.0625
3889	-82.0625
3890	-69.0625
3891	-47.0625
3892	-18.0625
3893	10.9375
3894	39.9375
3895	66.9375
3896	83.9375
3897	91.9375
3898	90.9375
3899	88.9375
3900	75.9375
3901	56.9375
3902	23.9375
3903	-9.0625
3904	-43.0625
3905	-69.0625
3906	-93.0625
3907	-96.0625
3908	-89.0625
3909	-74.0625
3910	-47.0625
3911	-23.0625
3912	-1.0625
3913	24.9375
3914	47.9375
3915	64.9375
3916	74.9375
3917	74.9375
3918	63.9375
3919	48.9375
3920	29.9375
3921	8.9375
3922	-11.0625
3923	-27.0625
3924	-37.0625
3925	-41.0625
3926	-38.0625
3927	-40.0625
3928	-39.0625
3929	-36.0625
3930	-31.0625
3931	-26.0625
3932	-11.0625
3933	0.9375
3934	7.9375
3935	18.9375
3936	27.9375
3937	26.9375
3938	29.9375
3939	29.9375
3940	25.9375
3941	25.9375
3942	17.9375
3943	10.9375
3944	0.9375
3945	-10.0625
3946	-19.0625
3947	-27.0625
3948	-27.0625
3949	-20.0625
3950	-10.0625
3951	0.9375
3952	2.9375
3953	-0.0625
3954	-1.0625
3955	-1.0625
3956	-1.0625
3957	-2.0625
3958	-3.0625
3959	-3.0625
3960	-1.0625
3961	-5.0625
3962	-0.0625
3963	2.9375
3964	16.9375
3965	33.9375
3966	42.9375
3967	44.9375
3968	40.9375
3969	31.9375
3970	7.9375
3971	-9.0625
3972	-24.0625
3973	-38.0625
3974	-52.0625
3975	-57.0625
3976	-58.0625
3977	-55.0625
3978	-48.0625
3979	-36.0625
3980	-18.0625
3981	4.9375
3982	25.9375
3983	48.9375
3984	62.9375
3985	67.9375
3986	62.9375
3987	53.9375
3988	43.9375
3989	31.9375
3990	20.9375
3991	4.9375
3992	-10.0625
3993	-31.0625
3994	-50.0625
3995	-64.0625
3996	-72.0625
3997	-75.0625
3998	-69.0625
3999	-55.0625
4000	-35.0625
4001	-9.0625
4002	17.9375
4003	42.9375
4004	63.9375
4005	86.9375
4006	98.9375
4007	102.938
4008	96.9375
4009	77.9375
4010	43.9375
4011	2.9375
4012	-34.0625
4013	-70.0625
4014	-94.0625
4015	-105.063
4016	-109.063
4017	-103.063
4018	-88.0625
4019	-66.0625
4020	-32.0625
4021	2.9375
4022	36.9375
4023	67.9375
4024	90.9375
4025	101.938
4026	102.938
4027	89.9375
4028	68.9375
4029	45.9375
4030	17.9375
4031	-9.0625
4032	-36.0625
4033	-63.0625
4034	-81.0625
4035	-94.0625
4036	-101.063
4037	-95.0625
4038	-77.0625
4039	-56.0625
4040	-24.0625
4041	12.9375
4042	43.9375
4043	71.9375
4044	92.9375
4045	104.938
4046	109.938
4047	102.938
4048	86.9375
4049	60.9375
4050	22.9375
4051	-21.0625
4052	-61.0625
4053	-93.0625
4054	-115.063
4055	-118.063
4056	-109.063
4057	-87.0625
4058	-57.0625
4059	-23.0625
4060	14.9375
4061	45.9375
4062	73.9375
4063	95.9375
4064	106.938
4065	102.938
4066	88.9375
4067	62.9375
4068	28.9375
4069	-5.0625
4070	-38.0625
4071	-64.0625
4072	-79.0625
4073	-88.0625
4074	-89.0625
4075	-80.0625
4076	-66.0625
4077	-50.0625
4078	-24.0625
4079	2.9375
4080	30.9375
4081	53.9375
4082	70.9375
4083	82.9375
4084	84.9375
4085	73.9375
4086	57.9375
4087	37.9375
4088	14.9375
4089	-6.0625
4090	-30.0625
4091	-51.0625
4092	-66.0625
4093	-78.0625
4094	-79.0625
4095	-70.0625
4096	-53.0625
4097	-25.0625
4098	6.9375
4099	37.9375
4100	59.9375
4101	72.9375
4102	77.9375
4103	72.9375
4104	59.9375
4105	44.9375
4106	21.9375
4107	-0.0625
4108	-23.0625
4109	-44.0625
4110	-60.0625
4111	-67.0625
4112	-65.0625
4113	-53.0625
4114	-43.0625
4115	-26.0625
4116	-1.0625
4117	16.9375
4118	29.9375
4119	38.9375
4120	39.9375
4121	39.9375
4122	36.9375
4123	25.9375
4124	15.9375
4125	5.9375
4126	-1.0625
4127	-13.0625
4128	-20.0625
4129	-29.0625
4130	-31.0625
4131	-31.0625
4132	-28.0625
4133	-25.0625
4134	-17.0625
4135	-6.0625
4136	4.9375
4137	15.9375
4138	26.9375
4139	36.9375
4140	33.9375
4141	33.9375
4142	32.9375
4143	24.9375
4144	13.9375
4145	0.9375
4146	-13.0625
4147	-22.0625
4148	-30.0625
4149	-36.0625
4150	-37.0625
4151	-27.0625
4152	-13.0625
4153	2.9375
4154	10.9375
4155	18.9375
4156	24.9375
4157	28.9375
4158	23.9375
4159	19.9375
4160	14.9375
4161	5.9375
4162	-0.0625
4163	-10.0625
4164	-19.0625
4165	-26.0625
4166	-27.0625
4167	-30.0625
4168	-19.0625
4169	-6.0625
4170	0.9375
4171	8.9375
4172	6.9375
4173	6.9375
4174	8.9375
4175	6.9375
4176	9.9375
4177	14.9375
4178	13.9375
4179	12.9375
4180	10.9375
4181	3.9375
4182	-2.0625
4183	-8.0625
4184	-12.0625
4185	-10.0625
4186	-14.0625
4187	-16.0625
4188	-8.0625
4189	-11.0625
4190	-7.0625
4191	-6.0625
4192	1.9375
4193	12.9375
4194	21.9375
4195	27.9375
4196	33.9375
4197	27.9375
4198	16.9375
4199	8.9375
4200	-2.0625
4201	-11.0625
4202	-19.0625
4203	-23.0625
4204	-25.0625
4205	-24.0625
4206	-18.0625
4207	-17.0625
4208	-11.0625
4209	-2.0625
4210	4.9375
4211	13.9375
4212	18.9375
4213	22.9375
4214	22.9375
4215	16.9375
4216	8.9375
4217	-0.0625
4218	-5.0625
4219	-1.0625
4220	-3.0625
4221	-4.0625
4222	-9.0625
4223	-14.0625
4224	-19.0625
4225	-19.0625
4226	-20.0625
4227	-17.0625
4228	-10.0625
4229	-2.0625
4230	6.9375
4231	13.9375
4232	16.9375
4233	18.9375
4234	24.9375
4235	23.9375
4236	23.9375
4237	19.9375
4238	15.9375
4239	3.9375
4240	-4.0625
4241	-13.0625
4242	-22.0625
4243	-27.0625
4244	-24.0625
4245	-20.0625
4246	-11.0625
4247	-3.0625
4248	5.9375
4249	9.9375
4250	13.9375
4251	16.9375
4252	13.9375
4253	11.9375
4254	8.9375
4255	6.9375
4256	-3.0625
4257	-7.0625
4258	-12.0625
4259	-17.0625
4260	-14.0625
4261	-11.0625
4262	-5.0625
4263	-1.0625
4264	2.9375
4265	5.9375
4266	6.9375
4267	7.9375
4268	3.9375
4269	0.9375
4270	-1.0625
4271	-0.0625
4272	-2.0625
4273	-7.0625
4274	-10.0625
4275	-9.0625
4276	-7.0625
4277	-4.0625
4278	-5.0625
4279	-3.0625
4280	1.9375
4281	6.9375
4282	9.9375
4283	12.9375
4284	12.9375
4285	17.9375
4286	18.9375
4287	18.9375
4288	14.9375
4289	13.9375
4290	1.9375
4291	-5.0625
4292	-12.0625
4293	-21.0625
4294	-30.0625
4295	-29.0625
4296	-31.0625
4297	-25.0625
4298	-17.0625
4299	-4.0625
4300	8.9375
4301	13.9375
4302	23.9375
4303	32.9375
4304	36.9375
4305	34.9375
4306	28.9375
4307	21.9375
4308	6.9375
4309	-7.0625
4310	-19.0625
4311	-29.0625
4312	-38.0625
4313	-40.0625
4314	-37.0625
4315	-29.0625
4316	-20.0625
4317	-11.0625
4318	-1.0625
4319	10.9375
4320	18.9375
4321	21.9375
4322	23.9375
4323	28.9375
4324	31.9375
4325	24.9375
4326	19.9375
4327	10.9375
4328	1.9375
4329	-2.0625
4330	-7.0625
4331	-13.0625
4332	-17.0625
4333	-19.0625
4334	-20.0625
4335	-20.0625
4336	-21.0625
4337	-16.0625
4338	-7.0625
4339	1.9375
4340	10.9375
4341	16.9375
4342	22.9375
4343	22.9375
4344	22.9375
4345	21.9375
4346	15.9375
4347	6.9375
4348	-2.0625
4349	-11.0625
4350	-13.0625
4351	-17.0625
4352	-18.0625
4353	-20.0625
4354	-15.0625
4355	-11.0625
4356	-7.0625
4357	0.9375
4358	7.9375
4359	6.9375
4360	5.9375
4361	5.9375
4362	-1.0625
4363	-3.0625
4364	-6.0625
4365	-2.0625
4366	-0.0625
4367	0.9375
4368	4.9375
4369	8.9375
4370	10.9375
4371	14.9375
4372	16.9375
4373	11.9375
4374	5.9375
4375	2.9375
4376	-0.0625
4377	-6.0625
4378	-12.0625
4379	-16.0625
4380	-15.0625
4381	-19.0625
4382	-15.0625
4383	-5.0625
4384	-1.0625
4385	3.9375
4386	9.9375
4387	15.9375
4388	16.9375
4389	16.9375
4390	16.9375
4391	16.9375
4392	14.9375
4393	12.9375
4394	9.9375
4395	1.9375
4396	-3.0625
4397	-12.0625
4398	-19.0625
4399	-22.0625
4400	-25.0625
4401	-25.0625
4402	-21.0625
4403	-19.0625
4404	-15.0625
4405	-7.0625
4406	3.9375
4407	10.9375
4408	16.9375
4409	22.9375
4410	23.9375
4411	31.9375
4412	22.9375
4413	16.9375
4414	8.9375
4415	-3.0625
4416	-14.0625
4417	-21.0625
4418	-22.0625
4419	-21.0625
4420	-20.0625
4421	-16.0625
4422	-10.0625
4423	-2.0625
4424	4.9375
4425	11.9375
4426	19.9375
4427	22.9375
4428	20.9375
4429	17.9375
4430	12.9375
4431	4.9375
4432	-0.0625
4433	-6.0625
4434	-6.0625
4435	-9.0625
4436	-6.0625
4437	-5.0625
4438	-2.0625
4439	0.9375
4440	-1.0625
4441	0.9375
4442	1.9375
4443	2.9375
4444	1.9375
4445	0.9375
4446	-1.0625
4447	-1.0625
4448	-2.0625
4449	-5.0625
4450	-3.0625
4451	-7.0625
4452	-8.0625
4453	-5.0625
4454	-4.0625
4455	-2.0625
4456	-5.0625
4457	-3.0625
4458	-1.0625
4459	0.9375
4460	4.9375
4461	8.9375
4462	9.9375
4463	9.9375
4464	9.9375
4465	8.9375
4466	6.9375
4467	1.9375
4468	-2.0625
4469	-9.0625
4470	-9.0625
4471	-15.0625
4472	-15.0625
4473	-14.0625
4474	-8.0625
4475	-3.0625
4476	2.9375
4477	8.9375
4478	16.9375
4479	16.9375
4480	19.9375
4481	16.9375
4482	13.9375
4483	9.9375
4484	1.9375
4485	-6.0625
4486	-12.0625
4487	-13.0625
4488	-13.0625
4489	-9.0625
4490	-8.0625
4491	-6.0625
4492	-1.0625
4493	-1.0625
4494	-2.0625
4495	-1.0625
4496	0.9375
4497	-4.0625
4498	-4.0625
4499	-0.0625
4500	-2.0625
4501	-3.0625
4502	-5.0625
4503	-3.0625
4504	-2.0625
4505	2.9375
4506	6.9375
4507	10.9375
4508	9.9375
4509	10.9375
4510	4.9375
4511	0.9375
4512	-6.0625
4513	-4.0625
4514	-4.0625
4515	-3.0625
4516	-3.0625
4517	-1.0625
4518	0.9375
4519	-4.0625
4520	-4.0625
4521	-2.0625
4522	-2.0625
4523	0.9375
4524	3.9375
4525	3.9375
4526	6.9375
4527	9.9375
4528	9.9375
4529	12.9375
4530	14.9375
4531	15.9375
4532	15.9375
4533	7.9375
4534	0.9375
4535	-7.0625
4536	-15.0625
4537	-25.0625
4538	-30.0625
4539	-26.0625
4540	-24.0625
4541	-20.0625
4542	-13.0625
4543	-3.0625
4544	5.9375
4545	13.9375
4546	18.9375
4547	26.9375
4548	26.9375
4549	26.9375
4550	19.9375
4551	9.9375
4552	-0.0625
4553	-9.0625
4554	-16.0625
4555	-22.0625
4556	-21.0625
4557	-20.0625
4558	-20.0625
4559	-14.0625
4560	-13.0625
4561	-10.0625
4562	-3.0625
4563	4.9375
4564	10.9375
4565	17.9375
4566	20.9375
4567	24.9375
4568	24.9375
4569	21.9375
4570	18.9375
4571	13.9375
4572	12.9375
4573	8.9375
4574	0.9375
4575	-11.0625
4576	-17.0625
4577	-22.0625
4578	-29.0625
4579	-33.0625
4580	-26.0625
4581	-22.0625
4582	-14.0625
4583	-2.0625
4584	8.9375
4585	13.9375
4586	20.9375
4587	23.9375
4588	25.9375
4589	29.9375
4590	26.9375
4591	15.9375
4592	10.9375
4593	-1.0625
4594	-9.0625
4595	-16.0625
4596	-24.0625
4597	-31.0625
4598	-30.0625
4599	-26.0625
4600	-22.0625
4601	-24.0625
4602	-18.0625
4603	-13.0625
4604	-1.0625
4605	6.9375
4606	16.9375
4607	28.9375
4608	36.9375
4609	38.9375
4610	38.9375
4611	37.9375
4612	33.9375
4613	23.9375
4614	13.9375
4615	-1.0625
4616	-19.0625
4617	-29.0625
4618	-43.0625
4619	-49.0625
4620	-50.0625
4621	-47.0625
4622	-33.0625
4623	-19.0625
4624	-1.0625
4625	16.9375
4626	32.9375
4627	45.9375
4628	53.9375
4629	52.9375
4630	48.9375
4631	36.9375
4632	25.9375
4633	9.9375
4634	-8.0625
4635	-27.0625
4636	-39.0625
4637	-48.0625
4638	-48.0625
4639	-48.0625
4640	-41.0625
4641	-31.0625
4642	-21.0625
4643	-7.0625
4644	6.9375
4645	17.9375
4646	25.9375
4647	27.9375
4648	32.9375
4649	29.9375
4650	27.9375
4651	24.9375
4652	17.9375
4653	7.9375
4654	-3.0625
4655	-6.0625
4656	-15.0625
4657	-21.0625
4658	-23.0625
4659	-17.0625
4660	-16.0625
4661	-11.0625
4662	-2.0625
4663	3.9375
4664	5.9375
4665	9.9375
4666	12.9375
4667	6.9375
4668	6.9375
4669	10.9375
4670	6.9375
4671	-0.0625
4672	-10.0625
4673	-11.0625
4674	-8.0625
4675	-2.0625
4676	2.9375
4677	10.9375
4678	18.9375
4679	21.9375
4680	20.9375
4681	16.9375
4682	6.9375
4683	-6.0625
4684	-13.0625
4685	-21.0625
4686	-33.0625
4687	-36.0625
4688	-38.0625
4689	-38.0625
4690	-37.0625
4691	-23.0625
4692	-7.0625
4693	11.9375
4694	28.9375
4695	39.9375
4696	48.9375
4697	49.9375
4698	42.9375
4699	34.9375
4700	21.9375
4701	12.9375
4702	-3.0625
4703	-17.0625
4704	-24.0625
4705	-31.0625
4706	-42.0625
4707	-45.0625
4708	-41.0625
4709	-36.0625
4710	-22.0625
4711	-6.0625
4712	6.9375
4713	16.9375
4714	24.9375
4715	33.9375
4716	42.9375
4717	42.9375
4718	42.9375
4719	42.9375
4720	38.9375
4721	27.9375
4722	9.9375
4723	-11.0625
4724	-26.0625
4725	-41.0625
4726	-51.0625
4727	-52.0625
4728	-49.0625
4729	-43.0625
4730	-32.0625
4731	-22.0625
4732	-11.0625
4733	8.9375
4734	20.9375
4735	32.9375
4736	40.9375
4737	46.9375
4738	42.9375
4739	37.9375
4740	21.9375
4741	7.9375
4742	-3.0625
4743	-18.0625
4744	-20.0625
4745	-19.0625
4746	-23.0625
4747	-25.0625
4748	-27.0625
4749	-28.0625
4750	-25.0625
4751	-18.0625
4752	-8.0625
4753	2.9375
4754	15.9375
4755	18.9375
4756	22.9375
4757	27.9375
4758	26.9375
4759	27.9375
4760	30.9375
4761	26.9375
4762	22.9375
4763	11.9375
4764	-2.0625
4765	-13.0625
4766	-24.0625
4767	-33.0625
4768	-38.0625
4769	-32.0625
4770	-24.0625
4771	-12.0625
4772	-5.0625
4773	0.9375
4774	9.9375
4775	16.9375
4776	22.9375
4777	21.9375
4778	22.9375
4779	18.9375
4780	12.9375
4781	4.9375
4782	-6.0625
4783	-15.0625
4784	-20.0625
4785	-18.0625
4786	-16.0625
4787	-13.0625
4788	-7.0625
4789	-8.0625
4790	-7.0625
4791	-3.0625
4792	-2.0625
4793	4.9375
4794	8.9375
4795	10.9375
4796	14.9375
4797	16.9375
4798	20.9375
4799	13.9375
4800	7.9375
4801	5.9375
4802	1.9375
4803	-1.0625
4804	-6.0625
4805	-11.0625
4806	-14.0625
4807	-18.0625
4808	-23.0625
4809	-18.0625
4810	-11.0625
4811	-1.0625
4812	5.9375
4813	18.9375
4814	26.9375
4815	26.9375
4816	27.9375
4817	21.9375
4818	19.9375
4819	9.9375
4820	2.9375
4821	-7.0625
4822	-16.0625
4823	-23.0625
4824	-27.0625
4825	-29.0625
4826	-28.0625
4827	-22.0625
4828	-18.0625
4829	-9.0625
4830	3.9375
4831	11.9375
4832	14.9375
4833	14.9375
4834	16.9375
4835	19.9375
4836	16.9375
4837	16.9375
4838	18.9375
4839	13.9375
4840	10.9375
4841	4.9375
4842	-6.0625
4843	-14.0625
4844	-21.0625
4845	-22.0625
4846	-23.0625
4847	-23.0625
4848	-21.0625
4849	-18.0625
4850	-10.0625
4851	-2.0625
4852	3.9375
4853	15.9375
4854	24.9375
4855	32.9375
4856	32.9375
4857	30.9375
4858	23.9375
4859	13.9375
4860	1.9375
4861	-8.0625
4862	-15.0625
4863	-18.0625
4864	-19.0625
4865	-20.0625
4866	-17.0625
4867	-13.0625
4868	-11.0625
4869	-4.0625
4870	2.9375
4871	1.9375
4872	8.9375
4873	7.9375
4874	3.9375
4875	1.9375
4876	-2.0625
4877	-3.0625
4878	-4.0625
4879	-4.0625
4880	-5.0625
4881	-0.0625
4882	5.9375
4883	6.9375
4884	9.9375
4885	5.9375
4886	2.9375
4887	3.9375
4888	2.9375
4889	-1.0625
4890	-1.0625
4891	-2.0625
4892	-4.0625
4893	-7.0625
4894	-9.0625
4895	-8.0625
4896	-3.0625
4897	-3.0625
4898	-3.0625
4899	-0.0625
4900	0.9375
4901	0.9375
4902	0.9375
4903	7.9375
4904	5.9375
4905	9.9375
4906	15.9375
4907	21.9375
4908	21.9375
4909	24.9375
4910	15.9375
4911	7.9375
4912	-2.0625
4913	-12.0625
4914	-20.0625
4915	-27.0625
4916	-31.0625
4917	-29.0625
4918	-30.0625
4919	-28.0625
4920	-17.0625
4921	-6.0625
4922	2.9375
4923	12.9375
4924	22.9375
4925	27.9375
4926	28.9375
4927	27.9375
4928	21.9375
4929	15.9375
4930	4.9375
4931	0.9375
4932	-5.0625
4933	-9.0625
4934	-13.0625
4935	-17.0625
4936	-22.0625
4937	-27.0625
4938	-25.0625
4939	-19.0625
4940	-15.0625
4941	-13.0625
4942	-3.0625
4943	2.9375
4944	10.9375
4945	19.9375
4946	26.9375
4947	30.9375
4948	36.9375
4949	36.9375
4950	34.9375
4951	26.9375
4952	17.9375
4953	0.9375
4954	-11.0625
4955	-26.0625
4956	-39.0625
4957	-46.0625
4958	-40.0625
4959	-35.0625
4960	-24.0625
4961	-15.0625
4962	-3.0625
4963	7.9375
4964	18.9375
4965	27.9375
4966	33.9375
4967	35.9375
4968	33.9375
4969	21.9375
4970	11.9375
4971	-0.0625
4972	-9.0625
4973	-20.0625
4974	-21.0625
4975	-25.0625
4976	-27.0625
4977	-22.0625
4978	-22.0625
4979	-18.0625
4980	-9.0625
4981	-7.0625
4982	1.9375
4983	10.9375
4984	18.9375
4985	24.9375
4986	20.9375
4987	23.9375
4988	23.9375
4989	16.9375
4990	7.9375
4991	0.9375
4992	-7.0625
4993	-9.0625
4994	-17.0625
4995	-22.0625
4996	-18.0625
4997	-16.0625
4998	-12.0625
4999	-2.0625
5000	8.9375
5001	18.9375
5002	24.9375
5003	28.9375
5004	26.9375
5005	19.9375
5006	10.9375
5007	0.9375
5008	-6.0625
5009	-15.0625
5010	-25.0625
5011	-32.0625
5012	-33.0625
5013	-30.0625
5014	-22.0625
5015	-10.0625
5016	3.9375
5017	18.9375
5018	25.9375
5019	26.9375
5020	24.9375
5021	20.9375
5022	12.9375
5023	4.9375
5024	-3.0625
5025	-11.0625
5026	-21.0625
5027	-28.0625
5028	-32.0625
5029	-32.0625
5030	-23.0625
5031	-15.0625
5032	-5.0625
5033	8.9375
5034	18.9375
5035	23.9375
5036	30.9375
5037	25.9375
5038	20.9375
5039	20.9375
5040	18.9375
5041	11.9375
5042	5.9375
5043	-4.0625
5044	-14.0625
5045	-21.0625
5046	-31.0625
5047	-30.0625
5048	-26.0625
5049	-19.0625
5050	-10.0625
5051	1.9375
5052	12.9375
5053	19.9375
5054	26.9375
5055	35.9375
5056	36.9375
5057	30.9375
5058	24.9375
5059	12.9375
5060	-0.0625
5061	-19.0625
5062	-36.0625
5063	-50.0625
5064	-52.0625
5065	-51.0625
5066	-42.0625
5067	-23.0625
5068	-8.0625
5069	11.9375
5070	25.9375
5071	38.9375
5072	46.9375
5073	49.9375
5074	46.9375
5075	39.9375
5076	31.9375
5077	12.9375
5078	-8.0625
5079	-26.0625
5080	-41.0625
5081	-52.0625
5082	-59.0625
5083	-50.0625
5084	-37.0625
5085	-22.0625
5086	-5.0625
5087	6.9375
5088	19.9375
5089	32.9375
5090	43.9375
5091	50.9375
5092	56.9375
5093	57.9375
5094	51.9375
5095	35.9375
5096	17.9375
5097	-5.0625
5098	-26.0625
5099	-39.0625
5100	-48.0625
5101	-55.0625
5102	-55.0625
5103	-50.0625
5104	-42.0625
5105	-34.0625
5106	-21.0625
5107	0.9375
5108	18.9375
5109	38.9375
5110	52.9375
5111	63.9375
5112	65.9375
5113	53.9375
5114	40.9375
5115	22.9375
5116	-0.0625
5117	-20.0625
5118	-29.0625
5119	-43.0625
5120	-52.0625
5121	-57.0625
5122	-53.0625
5123	-48.0625
5124	-36.0625
5125	-21.0625
5126	-5.0625
5127	11.9375
5128	29.9375
5129	42.9375
5130	49.9375
5131	45.9375
5132	39.9375
5133	37.9375
5134	29.9375
5135	24.9375
5136	18.9375
5137	6.9375
5138	-6.0625
5139	-15.0625
5140	-27.0625
5141	-36.0625
5142	-39.0625
5143	-40.0625
5144	-39.0625
5145	-30.0625
5146	-14.0625
5147	-4.0625
5148	6.9375
5149	15.9375
5150	20.9375
5151	25.9375
5152	32.9375
5153	32.9375
5154	34.9375
5155	29.9375
5156	22.9375
5157	8.9375
5158	-7.0625
5159	-18.0625
5160	-26.0625
5161	-33.0625
5162	-31.0625
5163	-28.0625
5164	-24.0625
5165	-21.0625
5166	-15.0625
5167	-12.0625
5168	-12.0625
5169	-6.0625
5170	3.9375
5171	12.9375
5172	19.9375
5173	25.9375
5174	27.9375
5175	21.9375
5176	16.9375
5177	15.9375
5178	17.9375
5179	16.9375
5180	14.9375
5181	8.9375
5182	2.9375
5183	-5.0625
5184	-14.0625
5185	-24.0625
5186	-29.0625
5187	-28.0625
5188	-23.0625
5189	-14.0625
5190	-5.0625
5191	0.9375
5192	7.9375
5193	4.9375
5194	8.9375
5195	13.9375
5196	17.9375
5197	21.9375
5198	22.9375
5199	19.9375
5200	17.9375
5201	6.9375
5202	-3.0625
5203	-8.0625
5204	-9.0625
5205	-11.0625
5206	-13.0625
5207	-19.0625
5208	-18.0625
5209	-19.0625
5210	-26.0625
5211	-29.0625
5212	-31.0625
5213	-22.0625
5214	-5.0625
5215	7.9375
5216	16.9375
5217	25.9375
5218	24.9375
5219	27.9375
5220	25.9375
5221	28.9375
5222	25.9375
5223	24.9375
5224	17.9375
5225	5.9375
5226	-3.0625
5227	-15.0625
5228	-23.0625
5229	-30.0625
5230	-30.0625
5231	-27.0625
5232	-21.0625
5233	-15.0625
5234	-10.0625
5235	-3.0625
5236	-0.0625
5237	5.9375
5238	10.9375
5239	20.9375
5240	24.9375
5241	28.9375
5242	34.9375
5243	33.9375
5244	27.9375
5245	18.9375
5246	12.9375
5247	3.9375
5248	-8.0625
5249	-17.0625
5250	-26.0625
5251	-36.0625
5252	-45.0625
5253	-51.0625
5254	-49.0625
5255	-43.0625
5256	-32.0625
5257	-17.0625
5258	-3.0625
5259	12.9375
5260	29.9375
5261	40.9375
5262	51.9375
5263	51.9375
5264	48.9375
5265	43.9375
5266	32.9375
5267	23.9375
5268	11.9375
5269	-6.0625
5270	-22.0625
5271	-37.0625
5272	-49.0625
5273	-54.0625
5274	-57.0625
5275	-49.0625
5276	-39.0625
5277	-28.0625
5278	-12.0625
5279	7.9375
5280	25.9375
5281	41.9375
5282	52.9375
5283	62.9375
5284	65.9375
5285	65.9375
5286	56.9375
5287	42.9375
5288	20.9375
5289	-6.0625
5290	-29.0625
5291	-56.0625
5292	-65.0625
5293	-71.0625
5294	-73.0625
5295	-67.0625
5296	-55.0625
5297	-38.0625
5298	-17.0625
5299	3.9375
5300	31.9375
5301	48.9375
5302	63.9375
5303	73.9375
5304	70.9375
5305	61.9375
5306	43.9375
5307	20.9375
5308	-0.0625
5309	-21.0625
5310	-40.0625
5311	-53.0625
5312	-54.0625
5313	-60.0625
5314	-63.0625
5315	-53.0625
5316	-41.0625
5317	-21.0625
5318	-0.0625
5319	24.9375
5320	42.9375
5321	54.9375
5322	57.9375
5323	62.9375
5324	52.9375
5325	40.9375
5326	29.9375
5327	13.9375
5328	-3.0625
5329	-21.0625
5330	-34.0625
5331	-45.0625
5332	-53.0625
5333	-53.0625
5334	-44.0625
5335	-31.0625
5336	-13.0625
5337	6.9375
5338	26.9375
5339	37.9375
5340	42.9375
5341	44.9375
5342	40.9375
5343	30.9375
5344	20.9375
5345	7.9375
5346	-7.0625
5347	-20.0625
5348	-37.0625
5349	-43.0625
5350	-47.0625
5351	-42.0625
5352	-30.0625
5353	-20.0625
5354	-4.0625
5355	9.9375
5356	24.9375
5357	35.9375
5358	39.9375
5359	38.9375
5360	36.9375
5361	23.9375
5362	16.9375
5363	5.9375
5364	-4.0625
5365	-21.0625
5366	-32.0625
5367	-36.0625
5368	-35.0625
5369	-33.0625
5370	-30.0625
5371	-20.0625
5372	-4.0625
5373	8.9375
5374	21.9375
5375	30.9375
5376	40.9375
5377	42.9375
5378	42.9375
5379	37.9375
5380	31.9375
5381	18.9375
5382	6.9375
5383	-9.0625
5384	-22.0625
5385	-37.0625
5386	-44.0625
5387	-51.0625
5388	-47.0625
5389	-39.0625
5390	-27.0625
5391	-15.0625
5392	0.9375
5393	13.9375
5394	25.9375
5395	37.9375
5396	44.9375
5397	42.9375
5398	38.9375
5399	29.9375
5400	17.9375
5401	4.9375
5402	-7.0625
5403	-18.0625
5404	-30.0625
5405	-37.0625
5406	-39.0625
5407	-37.0625
5408	-31.0625
5409	-24.0625
5410	-17.0625
5411	-8.0625
5412	-3.0625
5413	11.9375
5414	18.9375
5415	31.9375
5416	39.9375
5417	37.9375
5418	36.9375
5419	34.9375
5420	29.9375
5421	17.9375
5422	9.9375
5423	-2.0625
5424	-9.0625
5425	-18.0625
5426	-30.0625
5427	-40.0625
5428	-41.0625
5429	-38.0625
5430	-34.0625
5431	-26.0625
5432	-12.0625
5433	6.9375
5434	16.9375
5435	19.9375
5436	28.9375
5437	31.9375
5438	34.9375
5439	33.9375
5440	31.9375
5441	25.9375
5442	16.9375
5443	4.9375
5444	-8.0625
5445	-18.0625
5446	-33.0625
5447	-41.0625
5448	-42.0625
5449	-39.0625
5450	-35.0625
5451	-29.0625
5452	-21.0625
5453	-14.0625
5454	-1.0625
5455	7.9375
5456	20.9375
5457	37.9375
5458	48.9375
5459	50.9375
5460	49.9375
5461	44.9375
5462	32.9375
5463	15.9375
5464	-0.0625
5465	-12.0625
5466	-25.0625
5467	-37.0625
5468	-41.0625
5469	-45.0625
5470	-46.0625
5471	-41.0625
5472	-31.0625
5473	-18.0625
5474	-0.0625
5475	19.9375
5476	34.9375
5477	44.9375
5478	47.9375
5479	44.9375
5480	45.9375
5481	37.9375
5482	25.9375
5483	12.9375
5484	-3.0625
5485	-14.0625
5486	-24.0625
5487	-38.0625
5488	-47.0625
5489	-49.0625
5490	-46.0625
5491	-41.0625
5492	-27.0625
5493	-16.0625
5494	-3.0625
5495	8.9375
5496	16.9375
5497	28.9375
5498	34.9375
5499	44.9375
5500	46.9375
5501	42.9375
5502	33.9375
5503	17.9375
5504	1.9375
5505	-15.0625
5506	-30.0625
5507	-37.0625
5508	-41.0625
5509	-39.0625
5510	-31.0625
5511	-27.0625
5512	-19.0625
5513	-9.0625
5514	1.9375
5515	16.9375
5516	30.9375
5517	42.9375
5518	48.9375
5519	44.9375
5520	36.9375
5521	24.9375
5522	11.9375
5523	-2.0625
5524	-14.0625
5525	-21.0625
5526	-27.0625
5527	-33.0625
5528	-31.0625
5529	-33.0625
5530	-29.0625
5531	-18.0625
5532	-8.0625
5533	3.9375
5534	15.9375
5535	25.9375
5536	27.9375
5537	25.9375
5538	27.9375
5539	23.9375
5540	14.9375
5541	7.9375
5542	-1.0625
5543	-14.0625
5544	-25.0625
5545	-30.0625
5546	-35.0625
5547	-33.0625
5548	-31.0625
5549	-24.0625
5550	-10.0625
5551	0.9375
5552	14.9375
5553	24.9375
5554	32.9375
5555	38.9375
5556	38.9375
5557	30.9375
5558	20.9375
5559	9.9375
5560	-1.0625
5561	-15.0625
5562	-24.0625
5563	-31.0625
5564	-31.0625
5565	-28.0625
5566	-25.0625
5567	-21.0625
5568	-11.0625
5569	2.9375
5570	14.9375
5571	24.9375
5572	26.9375
5573	33.9375
5574	34.9375
5575	28.9375
5576	17.9375
5577	6.9375
5578	-5.0625
5579	-11.0625
5580	-19.0625
5581	-26.0625
5582	-25.0625
5583	-27.0625
5584	-29.0625
5585	-26.0625
5586	-23.0625
5587	-12.0625
5588	-2.0625
5589	8.9375
5590	16.9375
5591	23.9375
5592	27.9375
5593	25.9375
5594	22.9375
5595	16.9375
5596	8.9375
5597	0.9375
5598	-2.0625
5599	-8.0625
5600	-13.0625
5601	-22.0625
5602	-24.0625
5603	-20.0625
5604	-22.0625
5605	-14.0625
5606	-2.0625
5607	6.9375
5608	14.9375
5609	15.9375
5610	17.9375
5611	21.9375
5612	17.9375
5613	14.9375
5614	9.9375
5615	6.9375
5616	4.9375
5617	-1.0625
5618	-5.0625
5619	-6.0625
5620	-6.0625
5621	-7.0625
5622	-7.0625
5623	-6.0625
5624	-3.0625
5625	0.9375
5626	-3.0625
5627	-6.0625
5628	-6.0625
5629	-6.0625
5630	-5.0625
5631	-3.0625
5632	-4.0625
5633	-1.0625
5634	-2.0625
5635	0.9375
5636	0.9375
5637	-2.0625
5638	-1.0625
5639	2.9375
5640	4.9375
5641	9.9375
5642	6.9375
5643	6.9375
5644	1.9375
5645	3.9375
5646	1.9375
5647	0.9375
5648	-2.0625
5649	-1.0625
5650	-5.0625
5651	-5.0625
5652	-9.0625
5653	-13.0625
5654	-12.0625
5655	-13.0625
5656	-8.0625
5657	-3.0625
5658	6.9375
5659	14.9375
5660	18.9375
5661	20.9375
5662	20.9375
5663	21.9375
5664	22.9375
5665	20.9375
5666	17.9375
5667	8.9375
5668	1.9375
5669	-13.0625
5670	-20.0625
5671	-28.0625
5672	-32.0625
5673	-34.0625
5674	-31.0625
5675	-27.0625
5676	-16.0625
5677	-12.0625
5678	-3.0625
5679	4.9375
5680	13.9375
5681	20.9375
5682	24.9375
5683	32.9375
5684	31.9375
5685	34.9375
5686	31.9375
5687	22.9375
5688	11.9375
5689	-2.0625
5690	-15.0625
5691	-24.0625
5692	-36.0625
5693	-44.0625
5694	-50.0625
5695	-47.0625
5696	-41.0625
5697	-33.0625
5698	-25.0625
5699	-6.0625
5700	14.9375
5701	34.9375
5702	57.9375
5703	66.9375
5704	70.9375
5705	67.9375
5706	57.9375
5707	40.9375
5708	25.9375
5709	5.9375
5710	-20.0625
5711	-38.0625
5712	-53.0625
5713	-65.0625
5714	-75.0625
5715	-75.0625
5716	-64.0625
5717	-51.0625
5718	-31.0625
5719	0.9375
5720	20.9375
5721	42.9375
5722	57.9375
5723	64.9375
5724	70.9375
5725	70.9375
5726	59.9375
5727	50.9375
5728	31.9375
5729	8.9375
5730	-18.0625
5731	-42.0625
5732	-65.0625
5733	-83.0625
5734	-88.0625
5735	-84.0625
5736	-70.0625
5737	-52.0625
5738	-30.0625
5739	-6.0625
5740	18.9375
5741	45.9375
5742	66.9375
5743	79.9375
5744	87.9375
5745	84.9375
5746	74.9375
5747	58.9375
5748	30.9375
5749	2.9375
5750	-21.0625
5751	-40.0625
5752	-56.0625
5753	-67.0625
5754	-73.0625
5755	-70.0625
5756	-62.0625
5757	-48.0625
5758	-30.0625
5759	-7.0625
5760	14.9375
5761	36.9375
5762	51.9375
5763	61.9375
5764	69.9375
5765	63.9375
5766	54.9375
5767	46.9375
5768	32.9375
5769	14.9375
5770	-4.0625
5771	-22.0625
5772	-41.0625
5773	-55.0625
5774	-63.0625
5775	-63.0625
5776	-63.0625
5777	-53.0625
5778	-39.0625
5779	-22.0625
5780	-9.0625
5781	8.9375
5782	25.9375
5783	38.9375
5784	49.9375
5785	55.9375
5786	58.9375
5787	52.9375
5788	44.9375
5789	33.9375
5790	15.9375
5791	-0.0625
5792	-15.0625
5793	-26.0625
5794	-31.0625
5795	-38.0625
5796	-43.0625
5797	-43.0625
5798	-42.0625
5799	-36.0625
5800	-29.0625
5801	-13.0625
5802	0.9375
5803	13.9375
5804	26.9375
5805	35.9375
5806	41.9375
5807	48.9375
5808	50.9375
5809	50.9375
5810	40.9375
5811	32.9375
5812	16.9375
5813	-0.0625
5814	-18.0625
5815	-33.0625
5816	-48.0625
5817	-59.0625
5818	-61.0625
5819	-62.0625
5820	-52.0625
5821	-45.0625
5822	-23.0625
5823	-8.0625
5824	8.9375
5825	27.9375
5826	42.9375
5827	53.9375
5828	60.9375
5829	59.9375
5830	49.9375
5831	40.9375
5832	26.9375
5833	6.9375
5834	-10.0625
5835	-25.0625
5836	-39.0625
5837	-46.0625
5838	-51.0625
5839	-53.0625
5840	-51.0625
5841	-42.0625
5842	-29.0625
5843	-10.0625
5844	10.9375
5845	26.9375
5846	41.9375
5847	52.9375
5848	52.9375
5849	54.9375
5850	52.9375
5851	43.9375
5852	31.9375
5853	15.9375
5854	-4.0625
5855	-23.0625
5856	-40.0625
5857	-54.0625
5858	-59.0625
5859	-57.0625
5860	-43.0625
5861	-28.0625
5862	-16.0625
5863	-1.0625
5864	15.9375
5865	27.9375
5866	34.9375
5867	38.9375
5868	40.9375
5869	35.9375
5870	25.9375
5871	13.9375
5872	0.9375
5873	-14.0625
5874	-25.0625
5875	-32.0625
5876	-34.0625
5877	-30.0625
5878	-21.0625
5879	-16.0625
5880	-2.0625
5881	4.9375
5882	9.9375
5883	13.9375
5884	16.9375
5885	22.9375
5886	23.9375
5887	19.9375
5888	16.9375
5889	5.9375
5890	-4.0625
5891	-10.0625
5892	-15.0625
5893	-19.0625
5894	-15.0625
5895	-15.0625
5896	-6.0625
5897	2.9375
5898	7.9375
5899	11.9375
5900	17.9375
5901	21.9375
5902	23.9375
5903	20.9375
5904	19.9375
5905	11.9375
5906	3.9375
5907	-6.0625
5908	-20.0625
5909	-33.0625
5910	-39.0625
5911	-33.0625
5912	-29.0625
5913	-20.0625
5914	-13.0625
5915	-2.0625
5916	7.9375
5917	18.9375
5918	25.9375
5919	27.9375
5920	31.9375
5921	32.9375
5922	26.9375
5923	13.9375
5924	0.9375
5925	-14.0625
5926	-23.0625
5927	-32.0625
5928	-37.0625
5929	-32.0625
5930	-28.0625
5931	-21.0625
5932	-11.0625
5933	-1.0625
5934	9.9375
5935	15.9375
5936	22.9375
5937	28.9375
5938	32.9375
5939	33.9375
5940	31.9375
5941	25.9375
5942	16.9375
5943	6.9375
5944	-7.0625
5945	-11.0625
5946	-22.0625
5947	-26.0625
5948	-28.0625
5949	-28.0625
5950	-24.0625
5951	-23.0625
5952	-17.0625
5953	-9.0625
5954	5.9375
5955	14.9375
5956	27.9375
5957	35.9375
5958	37.9375
5959	33.9375
5960	31.9375
5961	20.9375
5962	9.9375
5963	-4.0625
5964	-19.0625
5965	-26.0625
5966	-38.0625
5967	-43.0625
5968	-47.0625
5969	-44.0625
5970	-32.0625
5971	-18.0625
5972	-10.0625
5973	6.9375
5974	20.9375
5975	32.9375
5976	41.9375
5977	42.9375
5978	44.9375
5979	38.9375
5980	28.9375
5981	17.9375
5982	3.9375
5983	-10.0625
5984	-19.0625
5985	-33.0625
5986	-43.0625
5987	-44.0625
5988	-43.0625
5989	-36.0625
5990	-27.0625
5991	-17.0625
5992	-1.0625
5993	13.9375
5994	31.9375
5995	39.9375
5996	45.9375
5997	52.9375
5998	51.9375
5999	40.9375
6000	26.9375
6001	10.9375
6002	-6.0625
6003	-23.0625
6004	-39.0625
6005	-50.0625
6006	-50.0625
6007	-50.0625
6008	-44.0625
6009	-33.0625
6010	-18.0625
6011	-0.0625
6012	14.9375
6013	27.9375
6014	37.9375
6015	44.9375
6016	44.9375
6017	34.9375
6018	25.9375
6019	12.9375
6020	0.9375
6021	-13.0625
6022	-25.0625
6023	-31.0625
6024	-29.0625
6025	-29.0625
6026	-27.0625
6027	-19.0625
6028	-12.0625
6029	-1.0625
6030	7.9375
6031	16.9375
6032	19.9375
6033	23.9375
6034	19.9375
6035	21.9375
6036	14.9375
6037	11.9375
6038	2.9375
6039	-3.0625
6040	-5.0625
6041	-10.0625
6042	-14.0625
6043	-17.0625
6044	-13.0625
6045	-10.0625
6046	-5.0625
6047	1.9375
6048	9.9375
6049	18.9375
6050	24.9375
6051	24.9375
6052	18.9375
6053	8.9375
6054	2.9375
6055	-4.0625
6056	-15.0625
6057	-22.0625
6058	-27.0625
6059	-32.0625
6060	-33.0625
6061	-31.0625
6062	-21.0625
6063	-9.0625
6064	6.9375
6065	23.9375
6066	34.9375
6067	38.9375
6068	40.9375
6069	38.9375
6070	33.9375
6071	21.9375
6072	9.9375
6073	-4.0625
6074	-21.0625
6075	-36.0625
6076	-45.0625
6077	-52.0625
6078	-51.0625
6079	-43.0625
6080	-32.0625
6081	-16.0625
6082	4.9375
6083	19.9375
6084	27.9375
6085	40.9375
6086	48.9375
6087	56.9375
6088	55.9375
6089	48.9375
6090	40.9375
6091	26.9375
6092	7.9375
6093	-14.0625
6094	-33.0625
6095	-49.0625
6096	-59.0625
6097	-67.0625
6098	-66.0625
6099	-58.0625
6100	-44.0625
6101	-26.0625
6102	-10.0625
6103	11.9375
6104	29.9375
6105	52.9375
6106	67.9375
6107	72.9375
6108	70.9375
6109	60.9375
6110	39.9375
6111	22.9375
6112	-0.0625
6113	-22.0625
6114	-42.0625
6115	-54.0625
6116	-63.0625
6117	-73.0625
6118	-72.0625
6119	-62.0625
6120	-46.0625
6121	-23.0625
6122	3.9375
6123	25.9375
6124	43.9375
6125	57.9375
6126	65.9375
6127	62.9375
6128	62.9375
6129	53.9375
6130	44.9375
6131	32.9375
6132	12.9375
6133	-6.0625
6134	-31.0625
6135	-49.0625
6136	-58.0625
6137	-65.0625
6138	-63.0625
6139	-56.0625
6140	-42.0625
6141	-27.0625
6142	-7.0625
6143	11.9375
6144	28.9375
6145	42.9375
6146	51.9375
6147	59.9375
6148	60.9375
6149	54.9375
6150	38.9375
6151	21.9375
6152	-1.0625
6153	-21.0625
6154	-35.0625
6155	-50.0625
6156	-57.0625
6157	-55.0625
6158	-52.0625
6159	-44.0625
6160	-29.0625
6161	-14.0625
6162	3.9375
6163	15.9375
6164	28.9375
6165	40.9375
6166	46.9375
6167	43.9375
6168	43.9375
6169	30.9375
6170	16.9375
6171	7.9375
6172	-3.0625
6173	-10.0625
6174	-17.0625
6175	-24.0625
6176	-30.0625
6177	-32.0625
6178	-31.0625
6179	-26.0625
6180	-13.0625
6181	-5.0625
6182	4.9375
6183	15.9375
6184	21.9375
6185	26.9375
6186	28.9375
6187	27.9375
6188	21.9375
6189	11.9375
6190	2.9375
6191	-10.0625
6192	-15.0625
6193	-20.0625
6194	-23.0625
6195	-24.0625
6196	-24.0625
6197	-20.0625
6198	-11.0625
6199	0.9375
6200	11.9375
6201	14.9375
6202	18.9375
6203	20.9375
6204	17.9375
6205	15.9375
6206	9.9375
6207	2.9375
6208	-9.0625
6209	-15.0625
6210	-20.0625
6211	-21.0625
6212	-23.0625
6213	-20.0625
6214	-15.0625
6215	-9.0625
6216	0.9375
6217	5.9375
6218	16.9375
6219	25.9375
6220	28.9375
6221	27.9375
6222	21.9375
6223	20.9375
6224	10.9375
6225	2.9375
6226	-1.0625
6227	-7.0625
6228	-17.0625
6229	-23.0625
6230	-22.0625
6231	-26.0625
6232	-22.0625
6233	-18.0625
6234	-13.0625
6235	-4.0625
6236	7.9375
6237	18.9375
6238	26.9375
6239	29.9375
6240	31.9375
6241	28.9375
6242	25.9375
6243	15.9375
6244	7.9375
6245	-0.0625
6246	-11.0625
6247	-22.0625
6248	-32.0625
6249	-37.0625
6250	-41.0625
6251	-36.0625
6252	-27.0625
6253	-15.0625
6254	-5.0625
6255	7.9375
6256	14.9375
6257	20.9375
6258	25.9375
6259	28.9375
6260	28.9375
6261	25.9375
6262	21.9375
6263	16.9375
6264	6.9375
6265	-5.0625
6266	-10.0625
6267	-17.0625
6268	-21.0625
6269	-22.0625
6270	-19.0625
6271	-19.0625
6272	-16.0625
6273	-11.0625
6274	-8.0625
6275	-3.0625
6276	4.9375
6277	11.9375
6278	19.9375
6279	21.9375
6280	25.9375
6281	29.9375
6282	24.9375
6283	17.9375
6284	15.9375
6285	7.9375
6286	-4.0625
6287	-8.0625
6288	-17.0625
6289	-24.0625
6290	-30.0625
6291	-28.0625
6292	-33.0625
6293	-30.0625
6294	-23.0625
6295	-11.0625
6296	-1.0625
6297	6.9375
6298	10.9375
6299	22.9375
6300	26.9375
6301	22.9375
6302	22.9375
6303	24.9375
6304	19.9375
6305	15.9375
6306	4.9375
6307	-3.0625
6308	-9.0625
6309	-18.0625
6310	-24.0625
6311	-26.0625
6312	-26.0625
6313	-27.0625
6314	-23.0625
6315	-18.0625
6316	-8.0625
6317	2.9375
6318	13.9375
6319	27.9375
6320	33.9375
6321	37.9375
6322	34.9375
6323	36.9375
6324	34.9375
6325	19.9375
6326	4.9375
6327	-7.0625
6328	-20.0625
6329	-31.0625
6330	-39.0625
6331	-37.0625
6332	-37.0625
6333	-32.0625
6334	-18.0625
6335	-5.0625
6336	3.9375
6337	13.9375
6338	24.9375
6339	30.9375
6340	31.9375
6341	29.9375
6342	22.9375
6343	17.9375
6344	9.9375
6345	-2.0625
6346	-13.0625
6347	-20.0625
6348	-30.0625
6349	-34.0625
6350	-33.0625
6351	-27.0625
6352	-18.0625
6353	-11.0625
6354	-1.0625
6355	10.9375
6356	20.9375
6357	25.9375
6358	27.9375
6359	31.9375
6360	28.9375
6361	21.9375
6362	16.9375
6363	2.9375
6364	-11.0625
6365	-15.0625
6366	-25.0625
6367	-31.0625
6368	-29.0625
6369	-23.0625
6370	-14.0625
6371	-2.0625
6372	5.9375
6373	14.9375
6374	26.9375
6375	33.9375
6376	36.9375
6377	36.9375
6378	30.9375
6379	17.9375
6380	1.9375
6381	-11.0625
6382	-27.0625
6383	-37.0625
6384	-44.0625
6385	-45.0625
6386	-39.0625
6387	-31.0625
6388	-17.0625
6389	-7.0625
6390	5.9375
6391	19.9375
6392	34.9375
6393	41.9375
6394	47.9375
6395	42.9375
6396	33.9375
6397	22.9375
6398	3.9375
6399	-13.0625
6400	-26.0625
6401	-36.0625
6402	-41.0625
6403	-43.0625
6404	-39.0625
6405	-34.0625
6406	-25.0625
6407	-11.0625
6408	1.9375
6409	14.9375
6410	29.9375
6411	41.9375
6412	47.9375
6413	47.9375
6414	41.9375
6415	35.9375
6416	23.9375
6417	8.9375
6418	-6.0625
6419	-15.0625
6420	-29.0625
6421	-40.0625
6422	-46.0625
6423	-47.0625
6424	-39.0625
6425	-28.0625
6426	-15.0625
6427	-4.0625
6428	15.9375
6429	28.9375
6430	36.9375
6431	40.9375
6432	38.9375
6433	35.9375
6434	25.9375
6435	12.9375
6436	-0.0625
6437	-9.0625
6438	-20.0625
6439	-31.0625
6440	-35.0625
6441	-40.0625
6442	-36.0625
6443	-30.0625
6444	-17.0625
6445	-6.0625
6446	4.9375
6447	12.9375
6448	18.9375
6449	21.9375
6450	21.9375
6451	24.9375
6452	20.9375
6453	16.9375
6454	13.9375
6455	7.9375
6456	1.9375
6457	-6.0625
6458	-11.0625
6459	-15.0625
6460	-19.0625
6461	-17.0625
6462	-16.0625
6463	-14.0625
6464	-5.0625
6465	-0.0625
6466	5.9375
6467	8.9375
6468	12.9375
6469	15.9375
6470	21.9375
6471	20.9375
6472	16.9375
6473	12.9375
6474	2.9375
6475	-8.0625
6476	-10.0625
6477	-13.0625
6478	-15.0625
6479	-19.0625
6480	-17.0625
6481	-16.0625
6482	-12.0625
6483	-7.0625
6484	-1.0625
6485	2.9375
6486	7.9375
6487	11.9375
6488	11.9375
6489	9.9375
