
Integration time [ms]: 500.000
Averaging Nr. [scans]: 10
Smoothing Nr. [pixels]: 0
Data measured with spectrometer [name]: 1901096U1
Wave   ;Sample   ;Dark     ;Reference;Absolute Irradiance  ;Photon Counts
[nm]   ;[counts] ;[counts] ;[counts] ;[µWatt/cm?/nm]       ;[µMol/s/m?/nm]

 155.82;  215.546;  220.336;   69.357; 0.00000; 0.00000
 156.42;  250.950;  239.240;   98.706; 0.00000; 0.00000
 157.03;  229.451;  223.041;   92.018; 0.00000; 0.00000
 157.63;  211.850;  212.140;   78.786; 0.00000; 0.00000
 158.23;  231.449;  215.440;   94.680; 0.00000; 0.00000
 158.84;  230.652;  233.042;  119.574; 0.00000; 0.00000
 159.44;  219.349;  229.939;   82.550; 0.00000; 0.00000
 160.04;  249.047;  233.638;  102.110; 0.00000; 0.00000
 160.64;  291.348;  291.439;   93.044; 0.00000; 0.00000
 161.25;  238.751;  242.041;  112.923; 0.00000; 0.00000
 161.85;  278.349;  250.139;  109.378; 0.00000; 0.00000
 162.45;  237.247;  214.738;   90.607; 0.00000; 0.00000
 163.06;  253.348;  268.439;   94.943; 0.00000; 0.00000
 163.66;  253.351;  254.041;   96.745; 0.00000; 0.00000
 164.26;  232.345;  228.235;   70.019; 0.00000; 0.00000
 164.86;  224.946;  223.836;  112.245; 0.00000; 0.00000
 165.47;  245.011;  222.006;  144.771; 0.00000; 0.00000
 166.07;  225.709;  227.405;  171.417; 0.00000; 0.00000
 166.67;  223.209;  221.004;  157.886; 0.00000; 0.00000
 167.27;  231.810;  227.505;  165.443; 0.00000; 0.00000
 167.88;  252.009;  243.204;  176.084; 0.00000; 0.00000
 168.48;  276.307;  270.602;  149.416; 0.00000; 0.00000
 169.08;  254.508;  255.003;  149.165; 0.00000; 0.00000
 169.68;  262.013;  266.507;  196.226; 0.00000; 0.00000
 170.29;  286.806;  279.502;  174.114; 0.00000; 0.00000
 170.89;  253.008;  246.104;  182.177; 0.00000; 0.00000
 171.49;  276.808;  267.103;  158.870; 0.00000; 0.00000
 172.09;  248.109;  243.304;  197.793; 0.00000; 0.00000
 172.70;  248.205;  241.700;  178.950; 0.00000; 0.00000
 173.30;  310.106;  312.302;  192.313; 0.00000; 0.00000
 173.90;  220.603;  227.899;  149.290; 0.00000; 0.00000
 174.50;  352.505;  342.200;  169.250; 0.00000; 0.00000
 175.11;  312.206;  290.801;  178.397; 0.00000; 0.00000
 175.71;  219.410;  202.005;  163.326; 0.00000; 0.00000
 176.31;  214.109;  201.904;  157.407; 0.00000; 0.00000
 176.91;  226.105;  218.401;  166.476; 0.00000; 0.00000
 177.51;  231.004;  227.000;  169.037; 0.00000; 0.00000
 178.12;  306.305;  302.301;  189.172; 0.00000; 0.00000
 178.72;  277.608;  269.103;  188.859; 0.00000; 0.00000
 179.32;  285.306;  283.101;  182.185; 0.00000; 0.00000
 179.92;  230.605;  227.101;  182.480; 0.00000; 0.00000
 180.52;  345.910;  333.605;  194.824; 0.00000; 0.00000
 181.13;  252.803;  252.699;  169.191; 0.00000; 0.00000
 181.73;  234.007;  213.902;  204.825; 0.00000; 0.00000
 182.33;  257.003;  243.799;  191.492; 0.00000; 0.00000
 182.93;  251.904;  233.800;  210.121; 0.00000; 0.00000
 183.54;  189.601;  182.997;  146.515; 0.00000; 0.00000
 184.14;  217.807;  204.202;  159.832; 0.00000; 0.00000
 184.74;  299.507;  274.302;  211.228; 0.00000; 0.00000
 185.34;  234.410;  224.105;  232.734; 0.04213; 0.00065
 185.94;  267.703;  259.299;  205.003; 0.04158; 0.00065
 186.54;  230.807;  238.903;  234.146;-0.03630;-0.00057
 187.15;  214.805;  203.901;  218.473; 0.05255; 0.00082
 187.75;  307.211;  294.206;  238.667; 0.03922; 0.00062
 188.35;  287.403;  278.399;  236.604; 0.03541; 0.00056
 188.95;  208.309;  208.004;  223.885; 0.00100; 0.00002
 189.55;  193.504;  171.400;  204.335; 0.08403; 0.00133
 190.16;  257.005;  253.900;  250.453; 0.01199; 0.00019
 190.76;  221.502;  196.298;  231.976; 0.08958; 0.00143
 191.36;  261.503;  260.299;  258.608; 0.00415; 0.00007
 191.96;  218.007;  216.002;  282.334; 0.00541; 0.00009
 192.56;  224.404;  216.599;  277.413; 0.02216; 0.00036
 193.16;  230.002;  222.298;  299.568; 0.02373; 0.00038
 193.77;  281.599;  280.796;  305.671; 0.00292; 0.00005
 194.37;  216.006;  198.501;  293.691; 0.04606; 0.00075
 194.97;  201.504;  197.299;  303.214; 0.01079; 0.00018
 195.57;  201.809;  200.904;  323.385; 0.00170; 0.00003
 196.17;  254.399;  239.195;  329.855; 0.05582; 0.00092
 196.77;  199.504;  201.800;  362.624;-0.00561;-0.00009
 197.38;  214.903;  209.299;  385.309; 0.01313; 0.00022
 197.98;  267.301;  255.797;  391.422; 0.03107; 0.00051
 198.58;  219.907;  235.002;  441.930;-0.03068;-0.00051
 199.18;  188.606;  185.202;  429.902; 0.00684; 0.00011
 199.78;  305.399;  269.496;  456.870; 0.12354; 0.00206
 200.38;  225.304;  239.300;  499.846;-0.02942;-0.00049
 200.98;  187.606;  178.001;  502.986; 0.01692; 0.00028
 201.59;  234.913;  215.408;  611.653; 0.02489; 0.00042
 202.19;  210.810;  224.805;  605.646;-0.02023;-0.00034
 202.79;  199.805;  197.500;  587.448; 0.00449; 0.00008
 203.39;  182.106;  161.601;  644.186; 0.03853; 0.00065
 203.99;  221.307;  222.003;  740.949;-0.00106;-0.00002
 204.59;  229.906;  222.002;  733.510; 0.01319; 0.00023
 205.19;  223.903;  216.999;  796.291; 0.01575; 0.00027
 205.79;  216.807;  207.602;  825.824; 0.01520; 0.00026
 206.40;  208.606;  198.301;  875.395; 0.01749; 0.00030
 207.00;  234.307;  228.303;  907.041; 0.00946; 0.00016
 207.60;  188.706;  190.601;  928.798;-0.00311;-0.00005
 208.20;  200.411;  203.105; 1019.353;-0.00342;-0.00006
 208.80;  194.711;  193.206; 1029.973; 0.00188; 0.00003
 209.40;  207.914;  199.209; 1141.880; 0.00918; 0.00016
 210.00;  194.107;  202.402; 1124.417;-0.01180;-0.00021
 210.60;  204.208;  201.703; 1170.175; 0.00321; 0.00006
 211.20;  278.408;  273.303; 1254.557; 0.00658; 0.00012
 211.81;  173.508;  153.303; 1237.652; 0.02579; 0.00046
 212.41;  192.612;  190.407; 1355.714; 0.00216; 0.00004
 213.01;  207.015;  189.210; 1400.416; 0.01464; 0.00026
 213.61;  180.710;  172.005; 1399.523; 0.00891; 0.00016
 214.21;  170.711;  181.706; 1517.477;-0.01011;-0.00018
 214.81;  186.613;  185.208; 1599.136; 0.00115; 0.00002
 215.41;  221.411;  224.406; 1677.966;-0.00284;-0.00005
 216.01;  237.311;  255.406; 1747.260;-0.01601;-0.00029
 216.61;  224.903;  220.499; 1794.906; 0.00597; 0.00011
 217.21;  233.414;  218.909; 1900.484; 0.00997; 0.00018
 217.81;  170.016;  167.410; 1966.536; 0.00153; 0.00003
 218.41;  188.314;  187.108; 2070.058; 0.00080; 0.00001
 219.02;  179.416;  188.510; 2134.247;-0.00503;-0.00009
 219.62;  215.812;  209.407; 2229.697; 0.00424; 0.00008
 220.22;  212.512;  200.407; 2296.000; 0.00743; 0.00014
 220.82;  183.815;  178.909; 2396.090; 0.00252; 0.00005
 221.42;  194.715;  197.310; 2534.516;-0.00122;-0.00002
 222.02;  180.114;  170.809; 2602.876; 0.00440; 0.00008
 222.62;  159.914;  160.508; 2644.667;-0.00028;-0.00001
 223.22;  182.014;  179.408; 2747.058; 0.00134; 0.00003
 223.82;  183.214;  180.408; 2851.961; 0.00134; 0.00003
 224.42;  211.013;  216.608; 2979.536;-0.00249;-0.00005
 225.02;  189.914;  189.208; 3070.857; 0.00029; 0.00001
 225.62;  168.718;  170.212; 3154.212;-0.00049;-0.00001
 226.22;  207.115;  190.210; 3251.918; 0.00632; 0.00012
 226.82;  195.114;  178.409; 3374.683; 0.00687; 0.00013
 227.42;  194.610;  191.205; 3459.925; 0.00174; 0.00003
 228.02;  190.110;  208.305; 3557.146;-0.00816;-0.00016
 228.62;  152.416;  137.910; 3720.333; 0.00521; 0.00010
 229.22;  230.517;  235.611; 3822.360;-0.00160;-0.00003
 229.82;  185.406;  177.202; 3910.707; 0.00475; 0.00009
 230.43;  192.115;  202.209; 4060.498;-0.00331;-0.00006
 231.03;  176.411;  170.305; 4165.853; 0.00241; 0.00005
 231.63;  183.510;  166.305; 4299.932; 0.00675; 0.00013
 232.23;  181.112;  184.506; 4439.690;-0.00122;-0.00002
 232.83;  189.712;  186.107; 4570.914; 0.00118; 0.00002
 233.43;  201.713;  198.208; 4679.232; 0.00110; 0.00002
 234.03;  177.913;  174.508; 4822.739; 0.00097; 0.00002
 234.63;  152.416;  146.210; 4963.625; 0.00154; 0.00003
 235.23;  195.715;  189.309; 5087.302; 0.00159; 0.00003
 235.83;  182.611;  175.706; 5158.578; 0.00206; 0.00004
 236.43;  207.008;  189.403; 5238.061; 0.00605; 0.00012
 237.03;  176.611;  175.506; 5367.267; 0.00032; 0.00001
 237.63;  284.612;  255.007; 5476.106; 0.00751; 0.00015
 238.23;  182.615;  178.109; 5557.100; 0.00099; 0.00002
 238.83;  174.415;  163.509; 5587.205; 0.00244; 0.00005
 239.43;  197.410;  173.305; 5669.235; 0.00675; 0.00013
 240.03;  189.514;  188.909; 5684.486; 0.00014; 0.00000
 240.63;  164.818;  169.912; 5805.009;-0.00093;-0.00002
 241.23;  216.912;  210.407; 5803.599; 0.00157; 0.00003
 241.83;  171.014;  170.609; 5757.283; 0.00009; 0.00000
 242.43;  192.013;  188.907; 5830.420; 0.00077; 0.00002
 243.03;  167.415;  175.209; 5665.396;-0.00154;-0.00003
 243.63;  169.013;  161.208; 5769.037; 0.00160; 0.00003
 244.23;  150.610;  154.805; 5796.819;-0.00121;-0.00002
 244.83;  156.414;  150.808; 5806.754; 0.00120; 0.00002
 245.43;  197.309;  189.204; 5823.208; 0.00206; 0.00004
 246.02;  354.212;  345.506; 5800.188; 0.00194; 0.00004
 246.62;  177.110;  176.605; 5811.522; 0.00014; 0.00000
 247.22;  158.716;  152.710; 5818.533; 0.00110; 0.00002
 247.82;  199.415;  205.209; 5941.708;-0.00104;-0.00002
 248.42;  275.113;  264.607; 5924.620; 0.00214; 0.00004
 249.02;  212.214;  199.908; 5931.763; 0.00235; 0.00005
 249.62;  173.117;  169.111; 5978.860; 0.00066; 0.00001
 250.22;  229.816;  228.510; 6035.626; 0.00023; 0.00000
 250.82;  211.713;  196.608; 6063.934; 0.00298; 0.00006
 251.42;  207.317;  197.211; 6166.982; 0.00153; 0.00003
 252.02;  161.913;  148.708; 6146.432; 0.00244; 0.00005
 252.62;  177.119;  173.413; 6316.257; 0.00049; 0.00001
 253.22;  228.412;  225.507; 6362.600; 0.00054; 0.00001
 253.82;  158.516;  144.310; 6451.444; 0.00242; 0.00005
 254.42;  164.014;  168.609; 6595.581;-0.00081;-0.00002
 255.02;  177.017;  184.211; 6709.758;-0.00097;-0.00002
 255.62;  157.116;  144.710; 6866.335; 0.00179; 0.00004
 256.22;  297.412;  273.107; 6997.500; 0.00444; 0.00010
 256.82;  164.711;  163.506; 7151.784; 0.00020; 0.00000
 257.41;  158.717;  158.811; 7263.866;-0.00001; 0.00000
 258.01;  172.914;  153.908; 7368.656; 0.00282; 0.00006
 258.61;  206.016;  207.910; 7537.434;-0.00024;-0.00001
 259.21;  156.312;  158.207; 7585.914;-0.00028;-0.00001
 259.81;  222.212;  197.507; 7627.906; 0.00373; 0.00008
 260.41;  285.112;  275.007; 7729.113; 0.00145; 0.00003
 261.01;  141.518;  136.212; 7804.604; 0.00057; 0.00001
 261.61;  166.317;  159.711; 7874.186; 0.00068; 0.00001
 262.21;  149.411;  159.106; 7809.864;-0.00137;-0.00003
 262.81;  140.812;  140.007; 7883.093; 0.00011; 0.00000
 263.41;  180.017;  151.011; 7851.264; 0.00307; 0.00007
 264.00;  377.818;  360.812; 7910.396; 0.00160; 0.00004
 264.60;  171.916;  178.010; 7832.833;-0.00062;-0.00001
 265.20;  149.415;  141.709; 7811.800; 0.00084; 0.00002
 265.80;  165.915;  170.309; 7807.390;-0.00045;-0.00001
 266.40;  179.612;  171.206; 7758.985; 0.00105; 0.00002
 267.00;  226.514;  211.909; 7744.586; 0.00153; 0.00003
 267.60;  194.016;  181.510; 7713.844; 0.00112; 0.00003
 268.20;  210.316;  192.610; 7658.534; 0.00146; 0.00003
 268.80;  146.516;  134.910; 7613.828; 0.00096; 0.00002
 269.39;  221.309;  199.004; 7639.694; 0.00259; 0.00006
 269.99;  149.013;  151.208; 7545.848;-0.00019; 0.00000
 270.59;  178.314;  168.409; 7557.185; 0.00080; 0.00002
 271.19;  154.613;  153.308; 7463.747; 0.00010; 0.00000
 271.79;  180.012;  175.907; 7430.716; 0.00030; 0.00001
 272.39;  160.912;  163.307; 7390.417;-0.00016; 0.00000
 272.99;  159.609;  150.304; 7366.798; 0.00070; 0.00002
 273.59;  146.808;  146.003; 7394.867; 0.00006; 0.00000
 274.18;  181.310;  171.305; 7372.027; 0.00060; 0.00001
 274.78;  180.007;  165.703; 7463.749; 0.00087; 0.00002
 275.38;  384.602;  361.998; 7541.064; 0.00157; 0.00004
 275.98;  161.199;  158.695; 7555.049; 0.00017; 0.00000
 276.58;  169.996;  172.593; 7679.967;-0.00017; 0.00000
 277.18;  144.900;  140.996; 7761.887; 0.00019; 0.00000
 277.78;  176.194;  168.891; 7885.197; 0.00039; 0.00001
 278.37;  150.289;  144.387; 8094.415; 0.00031; 0.00001
 278.97;  170.192;  161.590; 8236.837; 0.00034; 0.00001
 279.57;  169.586;  162.284; 8401.201; 0.00030; 0.00001
 280.17;  154.185;  139.283; 8585.075; 0.00056; 0.00001
 280.77;  179.182;  170.081; 8739.990; 0.00034; 0.00001
 281.37;  178.382;  178.680; 8921.174;-0.00001; 0.00000
 281.96;  177.873;  174.472; 9108.466; 0.00014; 0.00000
 282.56;  176.976;  173.175; 9270.274; 0.00013; 0.00000
 283.16;  187.771;  179.071; 9355.810; 0.00033; 0.00001
 283.76;  134.471;  139.371; 9505.805;-0.00016; 0.00000
 284.36;  310.167;  274.567; 9628.166; 0.00128; 0.00003
 284.95;  171.659;  159.561; 9802.511; 0.00053; 0.00001
 285.55;  170.264;  171.965; 9973.057;-0.00006; 0.00000
 286.15;  179.667;  174.867;10153.664; 0.00016; 0.00000
 286.75;  211.458;  205.160;10252.877; 0.00027; 0.00001
 287.35;  153.661;  142.062;10345.749; 0.00046; 0.00001
 287.94;  131.263;  117.664;10437.340; 0.00052; 0.00001
 288.54;  152.262;  144.863;10563.308; 0.00029; 0.00001
 289.14;  144.562;  139.663;10625.296; 0.00021; 0.00001
 289.74;  158.663;  148.364;10698.339; 0.00045; 0.00001
 290.34;  149.371;  159.671;10794.693;-0.00036;-0.00001
 290.93;  136.868;  143.468;10889.406;-0.00027;-0.00001
 291.53;  153.170;  151.470;10882.075; 0.00007; 0.00000
 292.13;  149.769;  135.669;10986.727; 0.00059; 0.00001
 292.73;  172.865;  170.066;10956.902; 0.00014; 0.00000
 293.33;  126.371;  120.771;10919.612; 0.00024; 0.00001
 293.92;  142.473;  140.573;10969.773; 0.00008; 0.00000
 294.52;  129.675;  127.074;10992.032; 0.00011; 0.00000
 295.12;  139.173;  145.273;10934.672;-0.00027;-0.00001
 295.72;  136.672;  125.172;10815.554; 0.00055; 0.00001
 296.31;  205.677;  188.876;10904.618; 0.00071; 0.00002
 296.91;  207.871;  192.771;10752.392; 0.00081; 0.00002
 297.51;  177.076;  161.875;10565.563; 0.00069; 0.00002
 298.11;  345.176;  338.175;10514.872; 0.00030; 0.00001
 298.70;  152.072;  142.872;10425.745; 0.00042; 0.00001
 299.30;  131.960;  120.561;10340.539; 0.00067; 0.00002
 299.90;  158.056;  166.258;10399.297;-0.00045;-0.00001
 300.50;  206.663;  191.364;10320.936; 0.00077; 0.00002
 301.09;  131.463;  125.663;10404.916; 0.00036; 0.00001
 301.69;  163.467;  145.168;10530.383; 0.00096; 0.00002
 302.29;  148.363;  130.664;10625.238; 0.00113; 0.00003
 302.89;  149.665;  132.366;10712.996; 0.00110; 0.00003
 303.48;  190.561;  196.462;10883.577;-0.00047;-0.00001
 304.08;  144.771;  143.871;11034.496; 0.00007; 0.00000
 304.68;  164.766;  148.966;11199.933; 0.00149; 0.00004
 305.28;  163.666;  157.467;11331.138; 0.00062; 0.00002
 305.87;  122.071;  121.071;11557.216; 0.00009; 0.00000
 306.47;  135.468;  118.968;11629.007; 0.00161; 0.00004
 307.07;  165.772;  157.372;11817.946; 0.00074; 0.00002
 307.67;  178.276;  156.475;12043.183; 0.00178; 0.00005
 308.26;  140.673;  143.772;12135.263;-0.00028;-0.00001
 308.86;  177.664;  167.665;12308.970; 0.00108; 0.00003
 309.46;  142.073;  137.072;12516.957; 0.00044; 0.00001
 310.05;  139.567;  141.167;12737.271;-0.00017; 0.00000
 310.65;  162.279;  158.578;12857.363; 0.00031; 0.00001
 311.25;  186.371;  160.371;12935.298; 0.00245; 0.00006
 311.85;  158.068;  156.568;13145.596; 0.00015; 0.00000
 312.44;  151.768;  149.168;13347.612; 0.00026; 0.00001
 313.04;  148.771;  136.371;13485.708; 0.00117; 0.00003
 313.64;  151.467;  149.968;13620.981; 0.00016; 0.00000
 314.23;  169.370;  160.970;13715.076; 0.00081; 0.00002
 314.83;  411.269;  384.969;13936.025; 0.00275; 0.00007
 315.43;  142.565;  127.165;13967.090; 0.00172; 0.00005
 316.02;  186.475;  176.974;14040.930; 0.00086; 0.00002
 316.62;  152.370;  147.370;14125.363; 0.00049; 0.00001
 317.22;  153.472;  160.472;14245.032;-0.00066;-0.00002
 317.81;  145.173;  137.272;14233.762; 0.00075; 0.00002
 318.41;  150.974;  144.273;14263.897; 0.00063; 0.00002
 319.01;  159.768;  140.268;14427.401; 0.00199; 0.00005
 319.60;  180.169;  175.869;14388.747; 0.00042; 0.00001
 320.20;  142.771;  124.570;14258.389; 0.00180; 0.00005
 320.80;  144.869;  149.269;14334.539;-0.00045;-0.00001
 321.39;  145.469;  149.269;14417.251;-0.00039;-0.00001
 321.99;  144.969;  145.369;14396.221;-0.00004; 0.00000
 322.59;  212.873;  198.472;14327.565; 0.00139; 0.00004
 323.18;  157.172;  138.872;14288.034; 0.00184; 0.00005
 323.78;  167.274;  156.574;14312.623; 0.00099; 0.00003
 324.38;  136.770;  136.770;14236.162; 0.00000; 0.00000
 324.97;  140.574;  131.673;14253.394; 0.00085; 0.00002
 325.57;  167.570;  153.870;14167.559; 0.00140; 0.00004
 326.17;  184.675;  164.075;14160.352; 0.00191; 0.00005
 326.76;  176.871;  151.871;14123.806; 0.00251; 0.00007
 327.36;  184.673;  170.672;14073.860; 0.00130; 0.00004
 327.95;  145.974;  126.274;13930.123; 0.00171; 0.00005
 328.55;  140.974;  132.874;13852.519; 0.00070; 0.00002
 329.15;  346.368;  326.868;13731.407; 0.00183; 0.00005
 329.74;  140.779;  131.678;13598.370; 0.00072; 0.00002
 330.34;  152.176;  151.176;13577.890; 0.00008; 0.00000
 330.94;  181.966;  163.167;13380.550; 0.00166; 0.00005
 331.53;  143.668;  144.968;13220.110;-0.00011; 0.00000
 332.13;  128.575;  114.274;13089.027; 0.00119; 0.00003
 332.72;  254.874;  237.274;12940.220; 0.00154; 0.00004
 333.32;  135.277;  140.176;12869.816;-0.00043;-0.00001
 333.92;  120.179;  123.678;12706.579;-0.00029;-0.00001
 334.51;  123.378;  121.477;12609.342; 0.00017; 0.00000
 335.11;  168.477;  147.876;12467.899; 0.00182; 0.00005
 335.70;  141.081;  132.879;12368.236; 0.00066; 0.00002
 336.30;  183.788;  174.086;12332.478; 0.00070; 0.00002
 336.90;  179.382;  153.880;12252.377; 0.00195; 0.00005
 337.49;  130.581;  121.780;12294.456; 0.00065; 0.00002
 338.09;  175.682;  150.080;12364.864; 0.00185; 0.00005
 338.68;  183.188;  159.586;12237.490; 0.00153; 0.00004
 339.28;  151.187;  133.585;12302.356; 0.00115; 0.00003
 339.88;  195.590;  153.887;12390.342; 0.00266; 0.00008
 340.47;  197.788;  177.686;12416.990; 0.00130; 0.00004
 341.07;  197.588;  169.486;12531.981; 0.00178; 0.00005
 341.66;  138.590;  109.888;12623.655; 0.00175; 0.00005
 342.26;  198.187;  132.885;12797.052; 0.00406; 0.00012
 342.85;  190.689;  148.086;12937.109; 0.00246; 0.00007
 343.45;  172.495;  127.392;12984.911; 0.00241; 0.00007
 344.05;  225.684;  157.382;13082.432; 0.00370; 0.00011
 344.64;  245.969;  156.969;13194.041; 0.00452; 0.00013
 345.24;  223.642;  119.945;13265.813; 0.00513; 0.00015
 345.83;  281.324;  163.730;13312.418; 0.00586; 0.00017
 346.43;  248.838;  115.042;13468.470; 0.00565; 0.00016
 347.02;  354.641;  183.844;13572.576; 0.00703; 0.00020
 347.62;  257.946;   84.249;13379.367; 0.00688; 0.00020
 348.21;  386.242;  151.546;13533.522; 0.00936; 0.00027
 348.81;  471.743;  181.646;13381.845; 0.01118; 0.00033
 349.41;  478.648;  148.051;13369.417; 0.01254; 0.00037
 350.00;  520.946;  126.049;13470.448; 0.01552; 0.00045
 350.60;  575.745;  126.948;13588.306; 0.01766; 0.00052
 351.19;  712.944;  152.847;13759.078; 0.02146; 0.00063
 351.79;  765.447;  173.150;13840.276; 0.02089; 0.00061
 352.38;  821.648;  111.051;13938.916; 0.02393; 0.00070
 352.98;  967.737;  141.641;13979.839; 0.02855; 0.00084
 353.57; 1081.429;  135.134;14008.884; 0.03151; 0.00093
 354.17; 1151.831;  100.336;14067.448; 0.03297; 0.00098
 354.76; 1299.623;  155.229;14095.882; 0.03492; 0.00104
 355.36; 1390.614;  135.021;14156.360; 0.03771; 0.00112
 355.95; 1457.901;   93.010;14214.335; 0.03985; 0.00119
 356.55; 1557.891;  103.101;14229.371; 0.04148; 0.00124
 357.14; 1676.079;  121.490;14325.365; 0.04237; 0.00126
 357.74; 1726.670;  132.882;14177.550; 0.04260; 0.00127
 358.33; 1773.154;  137.768;14059.315; 0.04323; 0.00129
 358.93; 1752.635;  136.352;13923.782; 0.04311; 0.00129
 359.52; 1774.025;  114.643;13798.344; 0.04242; 0.00127
 360.12; 1792.712;  116.631;13719.972; 0.04275; 0.00129
 360.71; 1727.311;  136.431;13707.554; 0.03958; 0.00119
 361.31; 1723.306;  157.026;13621.268; 0.03827; 0.00116
 361.90; 1870.399;  322.920;13507.738; 0.03823; 0.00116
 362.50; 1645.192;  143.914;13484.098; 0.03801; 0.00115
 363.09; 1576.794;  124.816;13341.582; 0.03707; 0.00113
 363.69; 1517.304;  123.025;13261.120; 0.03640; 0.00111
 364.28; 1505.618;  131.937;13269.773; 0.03650; 0.00111
 364.88; 1568.223;  189.041;13351.165; 0.03831; 0.00117
 365.47; 1515.435;  148.852;13342.885; 0.03705; 0.00113
 366.06; 1469.946;  123.162;13257.149; 0.03712; 0.00114
 366.66; 1442.351;  131.966;13117.317; 0.03684; 0.00113
 367.25; 1455.553;  149.468;13006.099; 0.03672; 0.00113
 367.85; 1412.860;  118.174;12998.112; 0.03532; 0.00109
 368.44; 1475.551;  195.066;12809.111; 0.03512; 0.00108
 369.04; 1399.242;  138.258;12658.104; 0.03486; 0.00108
 369.63; 1390.037;  155.053;12538.629; 0.03377; 0.00104
 370.23; 1341.231;  130.248;12507.819; 0.03349; 0.00104
 370.82; 1313.922;  127.040;12275.616; 0.03407; 0.00106
 371.41; 1230.827;  118.644;12167.683; 0.03204; 0.00099
 372.01; 1203.924;  140.643;12115.712; 0.03127; 0.00097
 372.60; 1139.129;  117.146;11975.456; 0.03088; 0.00096
 373.20; 1127.938;  174.654;12039.964; 0.02817; 0.00088
 373.79; 1040.646;  147.261;11941.740; 0.02576; 0.00080
 374.39;  960.042;  135.358;11902.018; 0.02409; 0.00075
 374.98;  887.042;  140.058;11792.806; 0.02187; 0.00069
 375.57;  854.439;  132.655;11721.304; 0.02162; 0.00068
 376.17;  795.635;  148.552;11796.660; 0.01953; 0.00061
 376.76;  737.639;  126.855;11721.704; 0.01851; 0.00058
 377.36;  679.340;  108.556;11727.335; 0.01733; 0.00055
 377.95;  638.142;  123.558;11721.412; 0.01541; 0.00049
 378.55;  597.442;  127.358;11711.712; 0.01418; 0.00045
 379.14;  566.648;  124.964;11709.428; 0.01319; 0.00042
 379.73;  511.835;  107.651;11636.354; 0.01253; 0.00040
 380.33;  494.639;  127.356;11703.912; 0.01117; 0.00036
 380.92;  486.037;  140.554;11668.144; 0.01062; 0.00034
 381.51;  468.144;  150.860;11686.070; 0.00961; 0.00031
 382.11;  393.243;  107.159;11643.046; 0.00870; 0.00028
 382.70;  425.938;  150.654;11603.363; 0.00851; 0.00027
 383.30;  372.040;  131.356;11590.348; 0.00737; 0.00024
 383.89;  375.637;  148.153;11709.427; 0.00696; 0.00022
 384.48;  328.736;  116.153;11665.995; 0.00650; 0.00021
 385.08;  329.437;  135.354;11854.352; 0.00591; 0.00019
 385.67;  301.540;  111.656;11824.527; 0.00566; 0.00018
 386.27;  286.440;  119.756;11982.236; 0.00496; 0.00016
 386.86;  284.236;  118.553;12038.498; 0.00497; 0.00016
 387.45;  276.239;  105.955;12123.205; 0.00502; 0.00016
 388.05;  306.041;  157.557;12277.087; 0.00430; 0.00014
 388.64;  305.943;  161.559;12483.044; 0.00417; 0.00014
 389.23;  266.941;  148.357;12506.880; 0.00339; 0.00011
 389.83;  225.537;  119.954;12733.854; 0.00301; 0.00010
 390.42;  268.838;  151.455;13005.489; 0.00328; 0.00011
 391.01;  205.846;  118.762;13122.046; 0.00239; 0.00008
 391.61;  210.138;  112.254;13136.770; 0.00271; 0.00009
 392.20;  213.637;  129.354;13389.848; 0.00230; 0.00008
 392.79;  208.839;  110.456;13482.314; 0.00265; 0.00009
 393.39;  249.337;  176.754;13714.141; 0.00194; 0.00006
 393.98;  170.741;   96.957;13887.473; 0.00194; 0.00006
 394.57;  215.832;  144.349;14119.877; 0.00188; 0.00006
 395.17;  250.942;  181.358;14342.017; 0.00178; 0.00006
 395.76;  231.635;  157.252;14398.170; 0.00192; 0.00006
 396.35;  205.241;  121.657;14723.368; 0.00211; 0.00007
 396.95;  211.540;  153.556;14851.736; 0.00145; 0.00005
 397.54;  206.141;  129.257;15011.260; 0.00190; 0.00006
 398.13;  274.543;  210.558;15237.327; 0.00156; 0.00005
 398.73;  189.042;  137.058;15364.602; 0.00125; 0.00004
 399.32;  189.435;  116.952;15491.473; 0.00174; 0.00006
 399.91;  177.940;  120.357;15600.753; 0.00136; 0.00005
 400.50;  183.438;  142.255;15697.381; 0.00097; 0.00003
 401.10;  196.943;  151.159;15828.054; 0.00107; 0.00004
 401.69;  168.441;  127.157;15854.460; 0.00096; 0.00003
 402.28;  179.841;  132.357;15897.175; 0.00109; 0.00004
 402.88;  197.241;  140.157;15970.475; 0.00130; 0.00004
 403.47;  186.441;  117.857;16008.786; 0.00156; 0.00005
 404.06;  202.440;  152.956;16056.750; 0.00112; 0.00004
 404.66;  175.341;  146.857;16006.671; 0.00065; 0.00002
 405.25;  199.536;  155.853;16161.003; 0.00099; 0.00003
 405.84;  174.745;  134.860;16197.799; 0.00089; 0.00003
 406.43;  156.942;  110.258;16343.805; 0.00104; 0.00004
 407.03;  193.843;  159.759;16413.145; 0.00075; 0.00003
 407.62;  149.133;  114.250;16282.092; 0.00078; 0.00003
 408.21;  245.942;  202.758;16281.894; 0.00096; 0.00003
 408.80;  149.238;  111.055;16313.383; 0.00085; 0.00003
 409.40;  152.344;  111.459;16243.061; 0.00090; 0.00003
 409.99;  206.341;  148.957;16360.174; 0.00127; 0.00004
 410.58;  126.446;   97.362;16266.062; 0.00064; 0.00002
 411.17;  158.645;  109.861;16281.023; 0.00108; 0.00004
 411.77;  170.640;  151.656;16300.337; 0.00042; 0.00001
 412.36;  142.642;  108.458;16211.225; 0.00076; 0.00003
 412.95;  152.346;  117.362;16312.261; 0.00077; 0.00003
 413.54;  162.748;  127.563;16200.710; 0.00078; 0.00003
 414.14;  172.847;  135.163;16218.084; 0.00084; 0.00003
 414.73;  135.444;   94.360;15995.170; 0.00092; 0.00003
 415.32;  148.747;  111.262;16069.668; 0.00084; 0.00003
 415.91;  145.451;  109.366;15987.828; 0.00081; 0.00003
 416.50;  132.149;   95.064;15943.356; 0.00084; 0.00003
 417.10;  148.346;  111.162;15912.947; 0.00085; 0.00003
 417.69;  220.448;  183.263;15903.020; 0.00085; 0.00003
 418.28;  179.448;  141.563;15902.022; 0.00087; 0.00003
 418.87;  172.851;  148.466;15922.014; 0.00056; 0.00002
 419.47;  180.149;  126.764;15950.140; 0.00124; 0.00004
 420.06;  201.256;  168.670;15879.978; 0.00076; 0.00003
 420.65;  191.149;  155.164;15894.348; 0.00085; 0.00003
 421.24;  153.155;  120.869;15789.352; 0.00076; 0.00003
 421.83;  141.154;  107.869;15610.418; 0.00079; 0.00003
 422.43;  149.353;  123.968;15405.994; 0.00061; 0.00002
 423.02;  170.150;  152.165;15476.169; 0.00044; 0.00002
 423.61;  193.561;  162.074;15425.441; 0.00076; 0.00003
 424.20;  152.058;  134.772;15117.051; 0.00042; 0.00002
 424.79;  177.261;  145.875;15050.664; 0.00077; 0.00003
 425.38;  148.957;  120.671;14884.408; 0.00070; 0.00003
 425.98;  137.256;  106.470;14787.487; 0.00077; 0.00003
 426.57;  212.462;  185.876;14780.592; 0.00067; 0.00002
 427.16;  226.164;  196.677;14687.646; 0.00075; 0.00003
 427.75;  135.460;  113.374;14634.427; 0.00057; 0.00002
 428.34;  135.363;  105.476;14516.915; 0.00077; 0.00003
 428.93;  166.969;  143.182;14525.937; 0.00061; 0.00002
 429.53;  159.274;  147.486;14399.900; 0.00031; 0.00001
 430.12;  145.969;  111.081;14222.417; 0.00092; 0.00003
 430.71;  125.166;  102.079;14024.941; 0.00062; 0.00002
 431.30;  199.262;  177.075;14018.987; 0.00060; 0.00002
 431.89;  168.868;  139.481;13882.793; 0.00079; 0.00003
 432.48;  194.673;  167.685;13707.379; 0.00074; 0.00003
 433.08;  165.369;  125.282;13447.029; 0.00111; 0.00004
 433.67;  148.272;  134.684;13403.231; 0.00037; 0.00001
 434.26;  161.574;  132.886;13265.896; 0.00079; 0.00003
 434.85;  169.876;  150.987;13088.457; 0.00053; 0.00002
 435.44;  169.779;  135.390;12961.570; 0.00097; 0.00004
 436.03;  179.981;  156.292;12988.141; 0.00067; 0.00002
 436.62;  290.774;  249.186;12866.499; 0.00118; 0.00004
 437.21;  158.881;  142.792;12843.026; 0.00046; 0.00002
 437.81;  194.282;  161.293;12774.470; 0.00094; 0.00003
 438.40;  181.779;  162.390;12805.753; 0.00055; 0.00002
 438.99;  180.585;  144.495;12760.762; 0.00103; 0.00004
 439.58;  129.782;  124.993;12757.487; 0.00014; 0.00001
 440.17;  143.585;  132.595;12745.864; 0.00031; 0.00001
 440.76;  159.582;  158.293;12749.184; 0.00004; 0.00000
 441.35;  129.486;  113.797;12701.024; 0.00045; 0.00002
 441.94;  151.782;  149.493;12804.873; 0.00007; 0.00000
 442.53;  137.183;   95.694;12713.802; 0.00119; 0.00004
 443.12;  179.386;  145.797;12880.022; 0.00096; 0.00004
 443.72;  118.588;  105.499;12883.889; 0.00037; 0.00001
 444.31;  121.193;  119.602;12914.632; 0.00005; 0.00000
 444.90;  197.287;  177.597;13017.940; 0.00056; 0.00002
 445.49;  117.089;  114.599;12977.005; 0.00007; 0.00000
 446.08;  157.287;  132.398;13065.358; 0.00070; 0.00003
 446.67;  162.986;  141.996;13047.204; 0.00060; 0.00002
 447.26;  120.101;  108.810;13128.922; 0.00032; 0.00001
 447.85;  110.894;  103.903;13136.170; 0.00020; 0.00001
 448.44;  122.099;   96.507;13156.836; 0.00071; 0.00003
 449.03;  132.191;  105.201;13212.075; 0.00075; 0.00003
 449.62;  138.287;   98.197;13212.835; 0.00111; 0.00004
 450.21;  151.299;  142.608;13232.144; 0.00024; 0.00001
 450.80;  156.694;  132.803;13210.071; 0.00065; 0.00002
 451.39;  109.794;  102.204;13280.288; 0.00021; 0.00001
 451.98;  134.301;  116.710;13361.025; 0.00047; 0.00002
 452.57;  139.699;  123.308;13352.967; 0.00044; 0.00002
 453.17;  117.195;  103.805;13390.926; 0.00036; 0.00001
 453.76;  126.604;   98.212;13449.411; 0.00075; 0.00003
 454.35;  128.500;  119.209;13449.195; 0.00024; 0.00001
 454.94;  114.602;  113.110;13547.948; 0.00004; 0.00000
 455.53;  125.201;   98.810;13647.621; 0.00068; 0.00003
 456.12;  121.905;  110.013;13639.739; 0.00031; 0.00001
 456.71;  144.808;  143.616;13729.472; 0.00003; 0.00000
 457.30;  133.808;  109.316;13869.368; 0.00062; 0.00002
 457.89;  126.907;  122.815;13859.720; 0.00010; 0.00000
 458.48;  109.106;   86.714;13992.283; 0.00056; 0.00002
 459.07;  146.710;  133.618;14014.042; 0.00033; 0.00001
 459.66;  115.508;   94.616;14017.355; 0.00052; 0.00002
 460.25;   95.408;   91.816;14043.774; 0.00009; 0.00000
 460.84;  154.009;  115.516;14122.487; 0.00095; 0.00004
 461.43;  100.909;   92.917;14239.908; 0.00020; 0.00001
 462.02;  147.909;  135.216;14250.976; 0.00031; 0.00001
 462.61;  114.011;   90.918;14354.648; 0.00056; 0.00002
 463.20;  124.813;  108.920;14434.730; 0.00038; 0.00001
 463.79;  131.311;  127.419;14540.469; 0.00009; 0.00000
 464.38;  102.510;   82.818;14582.535; 0.00047; 0.00002
 464.97;  130.611;   96.319;14564.374; 0.00082; 0.00003
 465.56;   93.212;   86.920;14552.106; 0.00015; 0.00001
 466.15;  100.222;   89.628;14775.149; 0.00025; 0.00001
 466.74;  139.522;  115.128;14771.829; 0.00057; 0.00002
 467.32;   82.816;   63.923;14624.322; 0.00044; 0.00002
 467.91;  136.017;  112.124;14685.370; 0.00056; 0.00002
 468.50;  102.617;   76.624;14662.474; 0.00060; 0.00002
 469.09;  122.621;  101.027;14603.087; 0.00050; 0.00002
 469.68;  187.416;  168.922;14576.221; 0.00043; 0.00002
 470.27;  141.023;  125.529;14710.860; 0.00035; 0.00001
 470.86;  117.227;   94.832;14779.790; 0.00051; 0.00002
 471.45;  111.723;   98.329;14796.673; 0.00030; 0.00001
 472.04;  102.923;   75.729;14893.567; 0.00062; 0.00002
 472.63;  216.025;  199.831;14949.444; 0.00037; 0.00001
 473.22;  130.330;  104.735;15081.421; 0.00058; 0.00002
 473.81;  111.130;   83.335;15204.309; 0.00063; 0.00002
 474.40;  152.828;  139.133;15323.040; 0.00031; 0.00001
 474.99;  124.129;  108.034;15371.985; 0.00036; 0.00001
 475.58;  157.227;  144.432;15472.797; 0.00029; 0.00001
 476.17;   99.334;   77.639;15381.247; 0.00049; 0.00002
 476.76;   94.233;   72.837;15500.493; 0.00048; 0.00002
 477.34;  131.533;  108.738;15690.220; 0.00051; 0.00002
 477.93;   94.630;   82.435;15655.120; 0.00027; 0.00001
 478.52;  110.334;   77.138;15804.937; 0.00074; 0.00003
 479.11;   80.133;   67.038;15723.306; 0.00029; 0.00001
 479.70;  182.133;  150.437;15824.401; 0.00070; 0.00003
 480.29;   67.432;   35.837;15854.772; 0.00070; 0.00003
 480.88;  113.629;   83.734;15970.172; 0.00067; 0.00003
 481.47;  128.333;   93.738;16240.510; 0.00077; 0.00003
 482.06;   79.233;   82.137;16277.097;-0.00006; 0.00000
 482.64;   96.229;   76.234;16369.672; 0.00045; 0.00002
 483.23;   88.429;   66.934;16600.365; 0.00048; 0.00002
 483.82;   80.031;   65.236;16701.951; 0.00033; 0.00001
 484.41;  103.935;   83.640;16720.385; 0.00045; 0.00002
 485.00;   69.536;   68.640;16684.320; 0.00002; 0.00000
 485.59;   97.432;   84.837;16757.570; 0.00028; 0.00001
 486.18;   76.233;   67.837;16565.195; 0.00019; 0.00001
 486.77;  130.034;   99.239;16641.256; 0.00070; 0.00003
 487.35;  113.438;   97.942;16516.766; 0.00035; 0.00001
 487.94;  105.640;  103.544;16342.365; 0.00005; 0.00000
 488.53;  149.332;  120.337;16328.276; 0.00066; 0.00003
 489.12;   90.333;   78.338;16137.914; 0.00027; 0.00001
 489.71;   98.339;   73.043;16040.510; 0.00058; 0.00002
 490.30;   92.333;   75.137;15823.296; 0.00040; 0.00002
 490.89;   76.339;   77.243;15770.310;-0.00002; 0.00000
 491.47;  171.536;  141.540;15636.203; 0.00070; 0.00003
 492.06;  136.440;  121.544;15767.440; 0.00035; 0.00001
 492.65;   77.133;   73.638;15651.517; 0.00008; 0.00000
 493.24;  103.336;   85.340;15745.321; 0.00042; 0.00002
 493.83;   92.938;   73.942;15737.289; 0.00045; 0.00002
 494.42;   62.233;   53.138;15680.605; 0.00022; 0.00001
 495.00;  111.645;   93.948;15772.610; 0.00042; 0.00002
 495.59;  110.641;  101.745;15555.489; 0.00021; 0.00001
 496.18;   86.737;   75.841;15587.835; 0.00026; 0.00001
 496.77;   69.842;   55.746;15499.329; 0.00034; 0.00001
 497.36;  136.939;  108.643;15408.615; 0.00069; 0.00003
 497.94;  129.538;  116.542;15405.174; 0.00032; 0.00001
 498.53;   75.646;   70.649;15336.545; 0.00012; 0.00001
 499.12;   75.348;   49.051;15247.135; 0.00066; 0.00003
 499.71;  104.938;   84.842;15223.276; 0.00051; 0.00002
 500.30;  100.641;   74.944;15162.171; 0.00065; 0.00003
 500.88;  126.049;   97.752;15165.755; 0.00072; 0.00003
 501.47;   86.146;   77.949;15064.069; 0.00021; 0.00001
 502.06;  110.547;   85.650;15084.289; 0.00064; 0.00003
 502.65;   84.146;   71.749;15053.546; 0.00032; 0.00001
 503.23;   82.243;   67.646;14986.635; 0.00038; 0.00002
 503.82;   89.846;   67.349;15037.966; 0.00059; 0.00002
 504.41;   60.450;   53.153;14906.905; 0.00019; 0.00001
 505.00;  186.947;  155.250;14855.493; 0.00084; 0.00004
 505.58;  111.245;   96.648;14830.521; 0.00039; 0.00002
 506.17;  130.850;  114.252;14742.188; 0.00044; 0.00002
 506.76;  112.344;   81.647;14670.589; 0.00082; 0.00003
 507.35;  123.150;   99.352;14583.180; 0.00064; 0.00003
 507.93;  102.553;   76.655;14526.590; 0.00070; 0.00003
 508.52;   88.952;   63.054;14549.052; 0.00070; 0.00003
 509.11;  102.347;   70.950;14402.097; 0.00086; 0.00004
 509.70;   84.451;   60.253;14285.923; 0.00066; 0.00003
 510.28;  113.951;   96.753;14326.917; 0.00048; 0.00002
 510.87;   99.453;   68.556;14263.308; 0.00086; 0.00004
 511.46;  104.453;   63.355;14128.893; 0.00115; 0.00005
 512.05;  101.048;   53.451;14064.229; 0.00134; 0.00006
 512.63;  119.258;   85.560;14044.876; 0.00095; 0.00004
 513.22;   98.454;   60.356;13960.816; 0.00109; 0.00005
 513.81;  118.762;   74.763;13930.912; 0.00126; 0.00005
 514.40;  115.659;   56.561;13850.705; 0.00171; 0.00007
 514.98;  146.760;   91.761;13811.717; 0.00159; 0.00007
 515.57;  149.754;   98.256;13759.513; 0.00150; 0.00006
 516.16;  246.956;  194.558;13665.995; 0.00155; 0.00007
 516.74;  125.756;   61.158;13650.798; 0.00191; 0.00008
 517.33;  160.353;   93.655;13631.582; 0.00198; 0.00009
 517.92;  169.757;   77.059;13572.029; 0.00276; 0.00012
 518.50;  125.662;   50.163;13526.084; 0.00227; 0.00010
 519.09;  172.056;   76.358;13522.206; 0.00287; 0.00012
 519.68;  151.058;   63.860;13582.164; 0.00263; 0.00011
 520.26;  175.358;   61.960;13514.477; 0.00344; 0.00015
 520.85;  189.358;   67.859;13509.653; 0.00370; 0.00016
 521.44;  211.656;   83.258;13416.109; 0.00394; 0.00017
 522.02;  187.855;   48.057;13449.657; 0.00429; 0.00019
 522.61;  207.763;   54.064;13481.719; 0.00472; 0.00021
 523.20;  263.458;  102.759;13529.651; 0.00495; 0.00022
 523.78;  215.158;   36.860;13421.774; 0.00551; 0.00024
 524.37;  266.059;   81.160;13489.089; 0.00573; 0.00025
 524.96;  267.961;   53.963;13546.479; 0.00664; 0.00029
 525.54;  316.261;   79.662;13559.268; 0.00735; 0.00032
 526.13;  352.260;   86.061;13613.739; 0.00829; 0.00036
 526.72;  327.759;   36.160;13636.987; 0.00910; 0.00040
 527.30;  389.266;   79.866;13736.029; 0.00965; 0.00043
 527.89;  402.764;   87.665;13772.479; 0.00985; 0.00043
 528.48;  428.862;   67.963;13717.585; 0.01130; 0.00050
 529.06;  463.764;   96.665;13839.567; 0.01149; 0.00051
 529.65;  495.667;   87.867;13879.060; 0.01277; 0.00057
 530.23;  527.271;   90.871;13985.299; 0.01368; 0.00061
 530.82;  566.662;   92.763;14006.492; 0.01490; 0.00066
 531.41;  571.763;   82.864;13952.847; 0.01544; 0.00069
 531.99;  654.565;  128.365;14189.484; 0.01656; 0.00074
 532.58;  617.168;   53.068;14202.188; 0.01781; 0.00079
 533.17; 1007.168;  372.868;14394.606; 0.01991; 0.00089
 533.75;  721.565;   82.365;14400.594; 0.02007; 0.00090
 534.34;  748.465;   46.266;14487.405; 0.02208; 0.00099
 534.92;  846.366;  109.366;14675.321; 0.02308; 0.00103
 535.51;  851.866;   65.267;14802.540; 0.02456; 0.00110
 536.10;  882.864;   73.565;14892.283; 0.02535; 0.00114
 536.68;  898.963;   46.464;14930.339; 0.02660; 0.00119
 537.27;  967.369;   71.169;15110.231; 0.02795; 0.00125
 537.85; 1043.365;   79.266;15302.512; 0.02981; 0.00134
 538.44; 1059.570;   64.070;15447.575; 0.03064; 0.00138
 539.02; 1077.066;   44.966;15526.634; 0.03181; 0.00143
 539.61; 1161.867;   51.267;15661.866; 0.03396; 0.00153
 540.20; 1238.070;   99.270;15878.364; 0.03469; 0.00157
 540.78; 1293.968;   90.468;16158.702; 0.03637; 0.00164
 541.37; 1325.573;   64.073;16286.580; 0.03791; 0.00172
 541.95; 1409.572;  101.471;16484.824; 0.03914; 0.00177
 542.54; 1424.572;   80.672;16728.355; 0.03981; 0.00180
 543.12; 1515.068;  103.568;16867.094; 0.04150; 0.00188
 543.71; 1544.369;   90.769;17189.740; 0.04237; 0.00193
 544.29; 1564.767;   73.468;17314.779; 0.04314; 0.00196
 544.88; 1602.167;   92.767;17689.258; 0.04319; 0.00197
 545.47; 1597.566;   40.767;17727.537; 0.04443; 0.00203
 546.05; 1700.471;   89.871;17966.822; 0.04560; 0.00208
 546.64; 1883.468;  236.468;18134.611; 0.04646; 0.00212
 547.22; 1725.573;   67.473;18293.980; 0.04639; 0.00212
 547.81; 1830.874;  109.374;18506.514; 0.04773; 0.00219
 548.39; 1788.771;   68.371;18651.521; 0.04766; 0.00218
 548.98; 1853.871;   82.770;18741.889; 0.04909; 0.00225
 549.56; 1878.072;   80.571;18939.928; 0.04940; 0.00227
 550.15; 1837.170;   49.370;19057.387; 0.04912; 0.00226
 550.73; 1869.977;   61.976;19266.816; 0.04956; 0.00228
 551.32; 1903.276;   69.075;19436.779; 0.05009; 0.00231
 551.90; 1883.371;   60.871;19450.693; 0.04981; 0.00230
 552.49; 1938.576;   87.875;19831.463; 0.05028; 0.00232
 553.07; 1960.572;  100.672;19986.041; 0.05055; 0.00234
 553.66; 1927.373;   84.973;20108.471; 0.04986; 0.00231
 554.24; 2039.977;  179.276;20174.721; 0.05063; 0.00235
 554.83; 1949.374;   81.874;20293.715; 0.05054; 0.00234
 555.41; 1928.675;   74.874;20431.230; 0.05011; 0.00233
 556.00; 1940.374;   89.774;20531.824; 0.04984; 0.00232
 556.58; 1934.079;   77.378;20630.889; 0.05007; 0.00233
 557.17; 1911.078;   79.077;20893.254; 0.04925; 0.00229
 557.75; 1859.382;   62.280;21027.377; 0.04832; 0.00225
 558.33; 1854.077;   57.876;21327.117; 0.04787; 0.00223
 558.92; 1852.781;   69.480;21511.662; 0.04743; 0.00222
 559.50; 1817.578;   57.177;21679.539; 0.04666; 0.00218
 560.09; 1830.078;   52.377;21966.859; 0.04695; 0.00220
 560.67; 1864.079;   92.177;22094.262; 0.04677; 0.00219
 561.26; 2062.177;  273.977;22325.426; 0.04700; 0.00220
 561.84; 1822.379;   96.578;22537.285; 0.04533; 0.00213
 562.43; 1755.083;   69.881;22665.506; 0.04406; 0.00207
 563.01; 1739.077;   68.476;22804.908; 0.04381; 0.00206
 563.60; 1718.978;   63.477;22987.145; 0.04330; 0.00204
 564.18; 1628.277;   18.377;22954.326; 0.04236; 0.00200
 564.76; 1673.279;   96.978;23225.584; 0.04143; 0.00196
 565.35; 1599.681;   19.179;23472.633; 0.04136; 0.00195
 565.93; 1655.581;   84.879;23797.533; 0.04107; 0.00194
 566.52; 1595.079;   57.978;24374.377; 0.03999; 0.00189
 567.10; 1536.482;   42.481;24673.195; 0.03901; 0.00185
 567.68; 1533.677;   45.276;25084.010; 0.03875; 0.00184
 568.27; 1462.980;   22.979;25516.410; 0.03755; 0.00178
 568.85; 1551.281;  107.380;26141.744; 0.03744; 0.00178
 569.44; 1445.382;   44.781;26641.191; 0.03640; 0.00173
 570.02; 1419.880;    5.678;27187.600; 0.03662; 0.00174
 570.60; 1429.482;   76.581;27742.281; 0.03492; 0.00167
 571.19; 1403.880;   64.579;28157.010; 0.03445; 0.00164
 571.77; 1413.178;   90.277;28428.947; 0.03410; 0.00163
 572.36; 1304.278;   14.977;28979.928; 0.03311; 0.00158
 572.94; 1330.881;   57.780;29391.047; 0.03264; 0.00156
 573.52; 1266.382;   21.580;29856.078; 0.03187; 0.00153
 574.11; 1271.682;   31.081;30210.297; 0.03164; 0.00152
 574.69; 1225.379;   39.278;30610.469; 0.03026; 0.00145
 575.27; 1201.480;   33.378;31068.201; 0.02964; 0.00143
 575.86; 1186.781;   44.780;31324.652; 0.02903; 0.00140
 576.44; 1165.482;   41.781;31821.682; 0.02846; 0.00137
 577.03; 1149.876;   38.175;32242.576; 0.02814; 0.00136
 577.61; 1130.877;   28.576;32332.604; 0.02796; 0.00135
 578.19; 1115.981;   27.179;32663.738; 0.02756; 0.00133
 578.78; 1068.780;   28.379;33150.430; 0.02631; 0.00127
 579.36; 1067.484;   21.282;33498.246; 0.02638; 0.00128
 579.94; 1094.476;   54.176;33838.488; 0.02617; 0.00127
 580.53; 1055.983;   50.281;33925.402; 0.02526; 0.00123
 581.11; 1063.581;   60.479;33902.137; 0.02509; 0.00122
 581.69; 1065.680;   82.579;33934.109; 0.02453; 0.00119
 582.28;  999.780;   40.579;34024.719; 0.02396; 0.00117
 582.86;  976.382;   29.580;34404.578; 0.02361; 0.00115
 583.44;  981.681;   65.680;34290.453; 0.02291; 0.00112
 584.02;  953.579;   43.078;34502.574; 0.02265; 0.00111
 584.61;  967.378;   67.677;34367.449; 0.02238; 0.00109
 585.19;  945.884;   72.082;34147.840; 0.02180; 0.00107
 585.77;  941.881;   69.280;34324.949; 0.02178; 0.00107
 586.36;  900.476;   34.775;34220.977; 0.02164; 0.00106
 586.94;  893.284;   45.182;34264.648; 0.02127; 0.00104
 587.52;  844.378;   16.577;34169.328; 0.02073; 0.00102
 588.11;  876.982;   53.080;34027.176; 0.02077; 0.00102
 588.69;  871.377;   76.376;34133.223; 0.02007; 0.00099
 589.27;  791.982;   27.181;34017.098; 0.01938; 0.00095
 589.85;  798.081;   34.080;34200.453; 0.01934; 0.00095
 590.44;  815.782;   21.681;34417.695; 0.02010; 0.00099
 591.02;  788.381;   37.680;34525.262; 0.01911; 0.00094
 591.60;  783.577;   32.876;34488.723; 0.01913; 0.00095
 592.18;  779.881;   49.980;34247.359; 0.01877; 0.00093
 592.77;  768.775;   48.875;34253.250; 0.01857; 0.00092
 593.35;  721.484;   16.382;34408.547; 0.01824; 0.00090
 593.93;  700.183;    4.282;34700.426; 0.01797; 0.00089
 594.51;  694.280;   28.279;34792.813; 0.01734; 0.00086
 595.10;  661.680;  -19.621;35006.313; 0.01776; 0.00088
 595.68;  676.683;   37.981;35184.211; 0.01672; 0.00083
 596.26;  632.481;    5.179;35202.832; 0.01646; 0.00082
 596.84;  607.078;  -11.623;35400.758; 0.01630; 0.00081
 597.43;  641.878;   44.577;35554.852; 0.01580; 0.00079
 598.01;  624.277;    5.076;35705.520; 0.01644; 0.00082
 598.59;  598.983;    6.281;35872.508; 0.01575; 0.00079
 599.17;  621.977;   16.776;35825.816; 0.01617; 0.00081
 599.76;  577.881;   -1.421;35690.133; 0.01554; 0.00078
 600.34;  572.575;   -2.426;35831.438; 0.01549; 0.00078
 600.92;  599.778;   36.577;35801.262; 0.01523; 0.00076
 601.50;  547.975;   -4.726;35980.527; 0.01497; 0.00075
 602.08;  608.477;   74.876;35747.195; 0.01455; 0.00073
 602.67;  563.776;   59.875;35853.664; 0.01379; 0.00069
 603.25;  502.282;    6.580;35959.473; 0.01358; 0.00068
 603.83;  512.282;   11.180;35792.375; 0.01380; 0.00070
 604.41;  485.580;   -2.522;35914.496; 0.01349; 0.00068
 604.99;  526.578;   47.377;36049.531; 0.01330; 0.00067
 605.58;  483.674;    9.674;35814.113; 0.01331; 0.00067
 606.16;  470.178;   14.777;35771.234; 0.01284; 0.00065
 606.74;  472.576;   29.775;35656.973; 0.01256; 0.00064
 607.32;  435.182;   15.481;35315.395; 0.01195; 0.00061
 607.90;  515.078;   76.477;35155.938; 0.01255; 0.00064
 608.48;  429.981;   21.180;34978.152; 0.01176; 0.00060
 609.07;  441.683;   53.182;34852.227; 0.01124; 0.00057
 609.65;  519.677;  109.676;34810.895; 0.01188; 0.00061
 610.23;  408.877;   24.477;34730.625; 0.01121; 0.00057
 610.81;  363.079;   -8.022;34496.090; 0.01087; 0.00055
 611.39;  345.977;  -18.224;34449.219; 0.01071; 0.00055
 611.97;  367.376;   23.876;34513.590; 0.01016; 0.00052
 612.55;  376.682;   29.181;34686.289; 0.01028; 0.00053
 613.14;  345.879;   -9.422;34700.883; 0.01057; 0.00054
 613.72;  289.475;  -38.326;34388.938; 0.00984; 0.00050
 614.30;  329.777;   -8.624;34659.613; 0.01014; 0.00052
 614.88;  318.977;    2.576;34379.121; 0.00954; 0.00049
 615.46;  314.478;    2.977;34221.359; 0.00945; 0.00049
 616.04;  335.174;   25.773;33908.996; 0.00949; 0.00049
 616.62;  328.275;   33.174;33753.336; 0.00905; 0.00047
 617.20;  265.276;  -34.725;33597.859; 0.00925; 0.00048
 617.79;  340.576;   50.475;33727.773; 0.00893; 0.00046
 618.37;  256.282;  -18.220;33152.965; 0.00853; 0.00044
 618.95;  283.277;   19.576;33161.605; 0.00825; 0.00043
 619.53;  233.277;  -23.724;32939.707; 0.00808; 0.00042
 620.11;  241.378;   -4.123;33004.430; 0.00775; 0.00040
 620.69;  234.175;   -2.425;32959.859; 0.00751; 0.00039
 621.27;  261.479;   33.878;32839.289; 0.00728; 0.00038
 621.85;  242.777;   15.776;32868.613; 0.00726; 0.00038
 622.43;  211.476;  -10.725;32800.363; 0.00718; 0.00037
 623.01;  178.378;  -52.623;32647.637; 0.00751; 0.00039
 623.59;  177.072;  -42.528;32613.248; 0.00717; 0.00037
 624.17;  217.180;    6.579;32739.422; 0.00690; 0.00036
 624.76;  189.774;  -11.726;32559.518; 0.00663; 0.00035
 625.34;  185.879;  -10.722;32568.980; 0.00652; 0.00034
 625.92;  196.179;   -0.122;32468.295; 0.00653; 0.00034
 626.50;  146.779;  -31.322;32290.064; 0.00596; 0.00031
 627.08;  195.581;   -6.320;32135.045; 0.00679; 0.00036
 627.66;  176.180;    1.679;32275.604; 0.00588; 0.00031
 628.24;  146.473;  -12.027;31949.385; 0.00538; 0.00028
 628.82;  147.274;  -12.326;31947.217; 0.00543; 0.00029
 629.40;  152.377;  -19.124;31771.922; 0.00586; 0.00031
 629.98;  129.075;  -37.626;31671.943; 0.00572; 0.00030
 630.56;  131.672;  -18.428;31838.951; 0.00516; 0.00027
 631.14;  118.278;  -47.123;31703.836; 0.00571; 0.00030
 631.72;  112.070;  -36.630;31831.287; 0.00514; 0.00027
 632.30;   99.975;  -44.926;31650.430; 0.00505; 0.00027
 632.88;  101.374;  -56.627;31645.305; 0.00553; 0.00029
 633.46;   89.978;  -48.723;31591.738; 0.00488; 0.00026
 634.04;  144.873;  -20.727;31630.781; 0.00584; 0.00031
 634.62;  146.476;   13.576;31356.793; 0.00474; 0.00025
 635.20;  120.975;   -5.226;31504.246; 0.00449; 0.00024
 635.78;   74.575;  -48.825;31576.955; 0.00443; 0.00024
 636.36;   84.575;  -48.025;31361.947; 0.00479; 0.00025
 636.94;  145.371;   18.171;31584.695; 0.00460; 0.00024
 637.52;   83.672;  -31.428;31522.854; 0.00418; 0.00022
 638.10;   79.072;  -67.128;31509.953; 0.00533; 0.00028
 638.68;   95.671;  -30.029;31569.314; 0.00459; 0.00025
 639.26;  100.478;  -15.123;31614.053; 0.00424; 0.00023
 639.84;  152.577;   30.876;31718.201; 0.00448; 0.00024
 640.42;   54.876;  -48.125;31593.980; 0.00380; 0.00020
 641.00;   37.376;  -72.625;31727.652; 0.00406; 0.00022
 641.58;   55.376;  -32.725;31806.523; 0.00326; 0.00017
 642.16;   64.676;  -36.525;31878.197; 0.00375; 0.00020
 642.74;   82.276;  -15.124;32005.869; 0.00362; 0.00019
 643.32;   82.077;  -16.024;32003.541; 0.00365; 0.00020
 643.90;   75.177;  -24.724;31874.514; 0.00374; 0.00020
 644.47;   55.477;  -33.924;31967.086; 0.00336; 0.00018
 645.05;   47.777;  -43.024;32259.957; 0.00342; 0.00018
 645.63;   52.177;  -29.624;32513.930; 0.00308; 0.00017
 646.21;   62.377;  -40.423;32526.102; 0.00388; 0.00021
 646.79;   76.378;  -18.323;32665.674; 0.00358; 0.00019
 647.37;   43.778;  -48.523;32710.047; 0.00351; 0.00019
 647.95;   91.878;   11.777;32776.320; 0.00305; 0.00017
 648.53;   72.578;  -17.623;32969.391; 0.00344; 0.00019
 649.11;   30.378;  -59.123;33030.465; 0.00343; 0.00019
 649.69;   16.079;  -62.923;33200.035; 0.00304; 0.00016
 650.27;   39.179;  -37.322;33310.707; 0.00294; 0.00016
 650.85;   18.979;  -50.422;33928.180; 0.00267; 0.00015
 651.42;   15.579;  -54.322;34418.152; 0.00270; 0.00015
 652.00;   -3.521;  -69.822;34969.625; 0.00256; 0.00014
 652.58;   29.779;  -42.522;35191.797; 0.00280; 0.00015
 653.16;   23.280;  -49.022;36135.668; 0.00281; 0.00015
 653.74;   64.980;  -19.021;36648.441; 0.00326; 0.00018
 654.32;   54.080;    0.879;37165.813; 0.00207; 0.00011
 654.90;   42.480;  -21.321;37183.387; 0.00248; 0.00014
 655.48;   15.580;  -53.621;36928.457; 0.00270; 0.00015
 656.05;  -19.419;  -79.821;36971.133; 0.00236; 0.00013
 656.63;   23.781;  -44.121;37052.504; 0.00266; 0.00015
 657.21;   32.081;  -39.120;36949.676; 0.00279; 0.00015
 657.79;   70.781;   20.480;36851.949; 0.00197; 0.00011
 658.37;  157.681;   92.380;36239.219; 0.00257; 0.00014
 658.95;   18.781;  -40.820;35664.891; 0.00235; 0.00013
 659.53;   17.882;  -26.220;35354.664; 0.00174; 0.00010
 660.10;    6.882;  -46.620;34605.535; 0.00212; 0.00012
 660.68;   -3.818;  -48.119;34863.910; 0.00176; 0.00010
 661.26;   26.882;  -22.219;34861.480; 0.00195; 0.00011
 661.84;   41.082;   -6.319;34877.855; 0.00189; 0.00010
 662.42;   22.283;  -33.619;34987.824; 0.00223; 0.00012
 663.00;   61.883;    2.181;35223.297; 0.00238; 0.00013
 663.57;   17.083;  -25.819;35418.969; 0.00171; 0.00009
 664.15;  -17.017;  -59.519;35596.441; 0.00169; 0.00009
 664.73;   24.183;  -22.218;35720.516; 0.00185; 0.00010
 665.31;    7.883;  -41.418;35988.887; 0.00197; 0.00011
 665.89;    5.384;  -33.618;36325.660; 0.00155; 0.00009
 666.46;  -29.616;  -65.918;36449.031; 0.00144; 0.00008
 667.04;  -19.016;  -67.318;36462.703; 0.00192; 0.00011
 667.62;  -14.116;  -53.018;36704.078; 0.00155; 0.00009
 668.20;   24.484;  -13.117;36966.848; 0.00150; 0.00008
 668.78;  -11.415;  -47.417;37359.223; 0.00142; 0.00008
 669.35;  187.585;  130.883;37649.895; 0.00224; 0.00013
 669.93;    1.385;  -43.617;37991.066; 0.00177; 0.00010
 670.51;  -22.715;  -76.017;38145.738; 0.00210; 0.00012
 671.09;   -8.615;  -49.617;38209.109; 0.00161; 0.00009
 671.66;   40.185;  -13.216;38580.684; 0.00209; 0.00012
 672.24;  -30.414;  -62.016;38670.656; 0.00124; 0.00007
 672.82;   16.286;  -34.916;39357.125; 0.00199; 0.00011
 673.40;  -42.314;  -60.016;39317.500; 0.00069; 0.00004
 673.97;    4.886;  -39.716;39754.371; 0.00174; 0.00010
 674.55;  -39.514;  -69.416;40012.742; 0.00117; 0.00007
 675.13;    6.187;  -27.216;40245.215; 0.00131; 0.00007
 675.71;  -42.113;  -81.115;40351.789; 0.00153; 0.00009
 676.28;    1.487;  -32.215;40497.563; 0.00132; 0.00007
 676.86;    0.787;  -35.215;40881.934; 0.00140; 0.00008
 677.44;  -11.213;  -39.115;41243.406; 0.00108; 0.00006
 678.01;  -15.913;  -56.715;41566.777; 0.00157; 0.00009
 678.59;  -27.312;  -41.615;41856.949; 0.00055; 0.00003
 679.17;   18.088;  -15.414;42126.723; 0.00128; 0.00007
 679.75;  -40.412;  -61.014;42527.496; 0.00078; 0.00004
 680.32;  -26.812;  -63.114;42799.965; 0.00138; 0.00008
 680.90;  -20.612;  -73.114;42983.039; 0.00199; 0.00011
 681.48;   -3.911;  -35.014;43704.012; 0.00117; 0.00007
 682.05;   22.189;  -15.214;43718.582; 0.00141; 0.00008
 682.63;  -55.211;  -83.013;44042.055; 0.00105; 0.00006
 683.21;  -29.611;  -66.313;44531.629; 0.00137; 0.00008
 683.78;   -8.111;  -48.413;44788.398; 0.00151; 0.00009
 684.36;  -41.111;  -67.313;44854.273; 0.00098; 0.00006
 684.94;  -52.810;  -70.513;45147.445; 0.00066; 0.00004
 685.52;  -21.610;  -45.613;45579.016; 0.00090; 0.00005
 686.09;  -47.210;  -63.112;45676.688; 0.00060; 0.00003
 686.67;  -39.810;  -72.812;45566.063; 0.00124; 0.00007
 687.25;  -16.710;  -34.212;45785.234; 0.00066; 0.00004
 687.82;  -47.809;  -59.912;45951.406; 0.00046; 0.00003
 688.40;  -16.509;  -33.312;46290.379; 0.00063; 0.00004
 688.97;  -43.709;  -63.312;46223.852; 0.00074; 0.00004
 689.55;  -31.509;  -73.912;46394.621; 0.00159; 0.00009
 690.13;  -13.609;  -32.711;46349.594; 0.00072; 0.00004
 690.70;   12.091;    3.589;46622.266; 0.00032; 0.00002
 691.28;  -17.608;  -30.511;46828.539; 0.00049; 0.00003
 691.86;   -1.608;  -26.811;47108.512; 0.00095; 0.00006
 692.43;  -33.008;  -49.811;47368.785; 0.00064; 0.00004
 693.01;  -26.208;  -48.211;47615.758; 0.00083; 0.00005
 693.59;   23.592;    4.790;47501.730; 0.00071; 0.00004
 694.16;  -53.407;  -71.310;47670.801; 0.00068; 0.00004
 694.74;  -17.907;  -35.810;48102.574; 0.00068; 0.00004
 695.31;  -37.707;  -67.010;48244.445; 0.00111; 0.00006
 695.89;  -62.007;  -65.610;48315.719; 0.00014; 0.00001
 696.47;  -47.207;  -65.310;48414.789; 0.00069; 0.00004
 697.04;   27.993;   27.591;48520.863; 0.00002; 0.00000
 697.62;   -3.506;  -11.709;48766.734; 0.00031; 0.00002
 698.19;  -12.206;  -43.109;48808.207; 0.00118; 0.00007
 698.77;   18.794;  -14.509;49016.680; 0.00126; 0.00007
 699.34;  -11.106;  -23.609;49065.551; 0.00048; 0.00003
 699.92;  -15.006;  -31.909;49022.223; 0.00064; 0.00004
 700.50;  -49.305;  -62.509;49321.195; 0.00050; 0.00003
 701.07;  -37.405;  -41.808;49435.668; 0.00017; 0.00001
 701.65;   -5.305;  -40.408;49736.641; 0.00133; 0.00008
 702.22;   -4.405;  -27.708;49895.914; 0.00089; 0.00005
 702.80;    2.995;  -12.708;49964.785; 0.00060; 0.00004
 703.37;    7.695;  -17.408;50193.457; 0.00096; 0.00006
 703.95;    3.396;  -25.908;50479.629; 0.00112; 0.00007
 704.52;  -26.904;  -36.807;50941.102; 0.00038; 0.00002
 705.10;  -53.204;  -71.907;51257.973; 0.00071; 0.00004
 705.68;  -53.104;  -71.807;51457.348; 0.00071; 0.00004
 706.25;  -36.704;  -51.107;51790.617; 0.00055; 0.00003
 706.83;   -4.903;  -19.407;51709.492; 0.00056; 0.00003
 707.40;   17.997;   -5.507;51802.363; 0.00090; 0.00005
 707.98;  -22.403;  -32.306;52174.938; 0.00038; 0.00002
 708.55;  -33.103;  -41.406;52212.406; 0.00032; 0.00002
 709.13;  -32.203;  -39.006;52351.980; 0.00026; 0.00002
 709.70;    6.997;  -10.106;52634.453; 0.00066; 0.00004
 710.28;  -21.202;  -34.606;52829.727; 0.00051; 0.00003
 710.85;  -35.502;  -46.506;52866.598; 0.00042; 0.00003
 711.43;  -32.502;  -57.805;53221.270; 0.00097; 0.00006
 712.00;   17.298;    4.195;53035.141; 0.00050; 0.00003
 712.58;  -29.702;  -32.305;53267.813; 0.00010; 0.00001
 713.15;   -9.001;  -18.105;53512.387; 0.00035; 0.00002
 713.73;  131.199;  106.895;53688.059; 0.00093; 0.00006
 714.30;   15.199;   -7.605;53973.031; 0.00088; 0.00005
 714.88;  -44.801;  -56.705;53874.602; 0.00046; 0.00003
 715.45;   -6.101;  -12.804;54110.676; 0.00026; 0.00002
 716.03;  -28.701;  -38.504;54504.449; 0.00038; 0.00002
 716.60;  -16.500;  -36.304;54248.020; 0.00077; 0.00005
 717.17;  -39.400;  -50.204;54334.492; 0.00042; 0.00003
 717.75;   -2.600;  -28.204;54719.965; 0.00099; 0.00006
 718.32;    2.200;   -5.404;54422.438; 0.00030; 0.00002
 718.90;  -42.100;  -44.003;54219.508; 0.00007; 0.00000
 719.47;   -8.999;  -34.803;54395.980; 0.00101; 0.00006
 720.05;    1.001;  -19.203;54543.352; 0.00079; 0.00005
 720.62;  -21.199;  -32.503;54725.727; 0.00044; 0.00003
 721.20;    0.301;    1.497;54603.398;-0.00005; 0.00000
 721.77;   -9.699;  -13.003;54810.770; 0.00013; 0.00001
 722.34;  -14.899;  -25.502;54964.742; 0.00042; 0.00003
 722.92;  -56.998;  -69.302;54886.816; 0.00049; 0.00003
 723.49;  -80.198;  -86.002;55052.387; 0.00023; 0.00001
 724.07;   -7.598;  -14.402;55315.660; 0.00027; 0.00002
 724.64;  -22.398;  -38.502;55283.133; 0.00064; 0.00004
 725.21;  -28.098;  -36.502;55661.605; 0.00033; 0.00002
 725.79;   -3.197;  -14.802;55881.777; 0.00046; 0.00003
 726.36;  -14.397;  -24.801;56024.648; 0.00042; 0.00003
 726.94;  -20.997;  -42.201;56315.820; 0.00085; 0.00005
 727.51;  -33.297;  -31.701;56807.895;-0.00006; 0.00000
 728.08;  -24.397;  -40.401;56846.766; 0.00064; 0.00004
 728.66;  -30.197;  -36.201;57255.438; 0.00024; 0.00001
 729.23;  -47.396;  -46.301;57826.512;-0.00004; 0.00000
 729.80;  -56.396;  -65.500;57723.582; 0.00037; 0.00002
 730.38;  -10.196;  -24.600;58136.555; 0.00058; 0.00004
 730.95;  -50.196;  -48.200;58380.727;-0.00008; 0.00000
 731.53;   -7.396;  -19.900;58386.398; 0.00050; 0.00003
 732.10;   -5.095;  -26.100;58444.473; 0.00085; 0.00005
 732.67;  -21.095;  -49.900;58673.445; 0.00116; 0.00007
 733.25;   24.405;   13.001;58645.816; 0.00046; 0.00003
 733.82;  -23.595;  -41.199;58935.488; 0.00071; 0.00004
 734.39;   -4.395;  -26.699;59133.359; 0.00090; 0.00006
 734.97;  -46.195;  -48.699;59207.234; 0.00010; 0.00001
 735.54;   24.406;   24.901;59275.906;-0.00002; 0.00000
 736.11;  -22.794;  -27.699;59227.777; 0.00020; 0.00001
 736.69;   24.006;   21.402;59661.551; 0.00011; 0.00001
 737.26;   -8.894;  -17.298;59761.621; 0.00034; 0.00002
 737.83;  -36.194;  -53.198;59570.594; 0.00069; 0.00004
 738.41;  -53.893;  -65.298;59493.766; 0.00047; 0.00003
 738.98;  -31.893;  -44.998;59380.039; 0.00054; 0.00003
 739.55;   13.007;    2.402;59269.609; 0.00043; 0.00003
 740.12;  -20.393;  -43.198;59404.781; 0.00093; 0.00006
 740.70;  -48.093;  -58.897;59095.055; 0.00044; 0.00003
 741.27;  -52.293;  -58.297;59266.027; 0.00025; 0.00002
 741.84;  -69.192;  -78.697;58997.301; 0.00039; 0.00002
 742.42;  -35.092;  -47.997;58935.172; 0.00053; 0.00003
 742.99;    8.108;    2.903;59108.945; 0.00022; 0.00001
 743.56;  -27.492;  -38.597;58782.516; 0.00046; 0.00003
 744.13;  -68.292;  -60.096;58925.988;-0.00034;-0.00002
 744.71;  119.409;   98.204;59260.961; 0.00088; 0.00006
 745.28;  -10.791;  -24.796;59793.035; 0.00058; 0.00004
 745.85;  -48.491;  -48.396;60592.605; 0.00000; 0.00000
 746.42;  -34.991;  -34.996;60780.477; 0.00000; 0.00000
 747.00;  -16.991;  -27.496;60843.250; 0.00045; 0.00003
 747.57;   90.109;   94.605;61990.422;-0.00019;-0.00001
 748.14;  -23.690;  -42.195;62691.895; 0.00078; 0.00005
 748.71;   -5.090;  -16.295;62852.969; 0.00048; 0.00003
 749.29;   -2.890;  -22.195;63047.340; 0.00082; 0.00005
 749.86;  -21.190;  -34.295;62964.410; 0.00056; 0.00004
 750.43;  -42.490;  -37.195;62938.785;-0.00023;-0.00001
 751.00;  -59.989;  -60.395;63066.457; 0.00002; 0.00000
 751.58;  -62.289;  -53.194;62976.328;-0.00039;-0.00002
 752.15;  122.711;  103.706;62703.602; 0.00083; 0.00005
 752.72;  -56.989;  -67.394;62198.273; 0.00045; 0.00003
 753.29;   74.711;   53.406;61943.344; 0.00093; 0.00006
 753.86;  -58.989;  -64.594;61476.219; 0.00025; 0.00002
 754.44;  -14.688;  -19.394;60961.590; 0.00021; 0.00001
 755.01;  -37.288;  -43.793;61186.664; 0.00029; 0.00002
 755.58;  -34.888;  -41.493;61188.133; 0.00029; 0.00002
 756.15;  -17.188;  -33.793;61287.309; 0.00074; 0.00005
 756.72;    9.912;   -8.993;61241.980; 0.00085; 0.00005
 757.29;  -18.187;  -25.193;61520.852; 0.00031; 0.00002
 757.87;  -50.387;  -66.893;61177.625; 0.00075; 0.00005
 758.44;  -40.287;  -49.592;61340.598; 0.00042; 0.00003
 759.01;  -20.487;  -33.492;61652.770; 0.00059; 0.00004
 759.58;  -57.087;  -61.392;61150.539; 0.00020; 0.00001
 760.15;    4.513;  -19.092;61244.414; 0.00108; 0.00007
 760.72;  -56.186;  -66.892;61275.887; 0.00049; 0.00003
 761.30;  -64.186;  -57.292;61491.059;-0.00032;-0.00002
 761.87;  -27.086;  -23.091;61700.730;-0.00019;-0.00001
 762.44;  -45.986;  -58.191;61389.602; 0.00057; 0.00004
 763.01;   -3.286;  -12.991;61658.973; 0.00045; 0.00003
 763.58;  -13.585;  -14.891;61295.145; 0.00006; 0.00000
 764.15;   -7.585;  -24.191;61126.418; 0.00079; 0.00005
 764.72;  -34.885;  -36.591;61225.391; 0.00008; 0.00001
 765.30;  -43.085;  -56.491;60961.664; 0.00064; 0.00004
 765.87;  -24.685;  -36.690;60665.336; 0.00058; 0.00004
 766.44;   21.415;   14.410;60815.809; 0.00034; 0.00002
 767.01;   14.616;    3.110;60390.180; 0.00056; 0.00004
 767.58;  -59.884;  -90.290;60249.254; 0.00148; 0.00009
 768.15;   -0.984;    4.410;60025.125;-0.00026;-0.00002
 768.72;  -52.984;  -60.090;60071.797; 0.00035; 0.00002
 769.29;  -39.884;  -67.089;59639.867; 0.00134; 0.00009
 769.86;   -4.583;  -23.589;59723.941; 0.00094; 0.00006
 770.43;  -72.083;  -70.789;59481.012;-0.00006; 0.00000
 771.00;  -31.283;  -23.889;59468.387;-0.00037;-0.00002
 771.58;  -23.983;  -28.989;59318.758; 0.00025; 0.00002
 772.15;  -54.783;  -52.189;58759.230;-0.00013;-0.00001
 772.72;  -23.083;  -37.988;58501.004; 0.00076; 0.00005
 773.29;  -18.182;  -35.288;58823.375; 0.00087; 0.00006
 773.86;  -60.182;  -63.988;58642.848; 0.00019; 0.00001
 774.43;  -29.282;  -45.688;58347.719; 0.00085; 0.00005
 775.00;  -26.282;  -35.588;58084.594; 0.00048; 0.00003
 775.57;  -10.982;  -19.788;58187.266; 0.00046; 0.00003
 776.14;  -16.181;  -18.088;57666.438; 0.00010; 0.00001
 776.71;    0.519;   -8.287;57754.707; 0.00046; 0.00003
 777.28;  -30.081;  -40.287;57916.582; 0.00054; 0.00003
 777.85;  -19.181;  -35.687;57633.352; 0.00088; 0.00006
 778.42;  -23.781;  -21.987;57701.227;-0.00010;-0.00001
 778.99;   -2.781;   -5.487;57689.199; 0.00014; 0.00001
 779.56;  -24.380;  -38.687;57683.570; 0.00077; 0.00005
 780.13;  -27.880;  -32.086;57522.441; 0.00023; 0.00001
 780.70;    2.720;   -9.286;57127.715; 0.00066; 0.00004
 781.27;  -17.480;   -7.286;57373.688;-0.00056;-0.00004
 781.84;  -45.480;  -46.486;57035.359; 0.00006; 0.00000
 782.41;   -0.879;    2.714;57011.230;-0.00020;-0.00001
 782.98;  -30.979;  -40.186;56933.703; 0.00051; 0.00003
 783.55;  -23.479;  -26.885;56749.277; 0.00019; 0.00001
 784.12;  -13.079;   -8.485;56663.449;-0.00026;-0.00002
 784.69;    0.421;   -0.885;56571.520; 0.00007; 0.00000
 785.26;  -37.679;  -38.585;56155.594; 0.00005; 0.00000
 785.83;  -53.678;  -65.785;56493.266; 0.00069; 0.00005
 786.40;   -1.278;    0.715;56145.137;-0.00012;-0.00001
 786.97;    5.322;    3.616;56138.109; 0.00010; 0.00001
 787.54;   17.622;   10.016;55947.883; 0.00044; 0.00003
 788.11;   13.722;    3.716;55781.355; 0.00059; 0.00004
 788.68;  -26.777;  -43.284;55704.926; 0.00097; 0.00006
 789.25;  -11.877;  -19.784;55524.000; 0.00047; 0.00003
 789.82;  -13.377;  -19.184;55552.473; 0.00035; 0.00002
 790.39;   -2.877;  -20.284;55451.941; 0.00105; 0.00007
 790.96;  -24.377;  -30.183;55430.816; 0.00035; 0.00002
 791.52;  -30.577;  -42.683;55217.586; 0.00074; 0.00005
 792.09;   29.724;   20.717;55290.262; 0.00055; 0.00004
 792.66;  -14.776;  -17.783;54793.531; 0.00019; 0.00001
 793.23;   39.824;   29.917;54894.703; 0.00061; 0.00004
 793.80;   -8.976;  -20.883;54770.176; 0.00074; 0.00005
 794.37;  -10.676;  -12.482;54456.648; 0.00011; 0.00001
 794.94;  -12.475;  -15.882;54176.121; 0.00021; 0.00001
 795.51;  -16.975;  -28.782;54046.492; 0.00075; 0.00005
 796.08;  -27.075;  -24.282;53871.066;-0.00018;-0.00001
 796.65;  -27.675;  -32.682;53578.039; 0.00032; 0.00002
 797.21;   26.525;   15.018;53301.109; 0.00074; 0.00005
 797.78;    7.925;   -2.581;52997.883; 0.00068; 0.00005
 798.35;   23.526;   21.219;52509.055; 0.00015; 0.00001
 798.92;  566.426;  513.919;52532.129; 0.00343; 0.00023
 799.49;  -28.674;  -35.681;52089.301; 0.00046; 0.00003
 800.06;   27.826;   28.719;51915.273;-0.00006; 0.00000
 800.63;   17.126;   14.719;51659.145; 0.00016; 0.00001
 801.20;  -24.173;   -5.981;51781.215;-0.00122;-0.00008
 801.76;  -13.173;  -16.280;51808.391; 0.00021; 0.00001
 802.33;  -17.773;  -19.980;51489.063; 0.00015; 0.00001
 802.90;   26.027;   13.720;51322.234; 0.00084; 0.00006
 803.47;  -18.373;  -18.880;51648.906; 0.00003; 0.00000
 804.04;  -30.873;  -35.980;51628.277; 0.00035; 0.00002
 804.61;   19.128;   19.920;51369.352;-0.00005; 0.00000
 805.17;  -24.272;  -29.679;51365.223; 0.00037; 0.00003
 805.74;  -22.272;  -39.079;51444.695; 0.00116; 0.00008
 806.31;   -2.772;   -5.479;51037.367; 0.00019; 0.00001
 806.88;  -43.972;  -54.379;51096.238; 0.00072; 0.00005
 807.45;  -49.971;  -68.279;50997.012; 0.00128; 0.00009
 808.01;  -18.671;  -10.179;50947.582;-0.00059;-0.00004
 808.58;   39.329;   46.122;50841.555;-0.00048;-0.00003
 809.15;   -6.071;   -2.878;50956.328;-0.00023;-0.00002
 809.72;   23.829;   -0.878;50689.500; 0.00175; 0.00012
 810.29;   -5.671;  -17.978;50169.973; 0.00088; 0.00006
 810.85;  -29.470;  -26.178;50108.844;-0.00024;-0.00002
 811.42;  -28.570;  -28.178;49628.117;-0.00003; 0.00000
 811.99;  -19.470;  -21.777;49373.191; 0.00017; 0.00001
 812.56;  -41.770;  -33.177;48973.660;-0.00064;-0.00004
 813.12;  -15.170;   -3.077;48451.535;-0.00091;-0.00006
 813.69;  -10.369;  -13.577;48256.105; 0.00024; 0.00002
 814.26;  -21.469;  -20.277;47696.578;-0.00009;-0.00001
 814.83;  -29.569;  -31.777;47276.250; 0.00017; 0.00001
 815.39;  -52.869;  -59.377;47147.422; 0.00051; 0.00003
 815.96;   -8.869;  -17.676;46894.797; 0.00069; 0.00005
 816.53;   47.431;   31.324;46686.770; 0.00128; 0.00009
 817.10;  -27.368;  -36.476;46572.539; 0.00073; 0.00005
 817.66;  -61.768;  -62.676;46288.414; 0.00007; 0.00001
 818.23;  -64.468;  -64.176;46067.184;-0.00002; 0.00000
 818.80;  -56.968;  -57.476;45888.656; 0.00004; 0.00000
 819.37;  -18.168;  -14.975;45872.930;-0.00026;-0.00002
 819.93;  -48.367;  -52.875;45789.703; 0.00037; 0.00003
 820.50;  -64.367;  -60.375;45226.676;-0.00033;-0.00002
 821.07;  -50.967;  -53.175;45200.645; 0.00018; 0.00001
 821.63;   75.033;   55.925;44835.719; 0.00161; 0.00011
 822.20;   66.433;   64.025;44818.590; 0.00020; 0.00001
 822.77;    4.933;  -15.174;44641.164; 0.00172; 0.00012
 823.34;  -31.266;  -35.774;44447.734; 0.00039; 0.00003
 823.90;  -48.866;  -36.574;44150.906;-0.00106;-0.00007
 824.47;   -6.066;  -11.074;44035.379; 0.00044; 0.00003
 825.04;  -38.766;  -41.474;43910.254; 0.00024; 0.00002
 825.60;  -18.266;  -14.574;43882.324;-0.00032;-0.00002
 826.17;  -61.965;  -55.874;43471.496;-0.00054;-0.00004
 826.74;  -50.365;  -44.173;43311.770;-0.00055;-0.00004
 827.30;  -48.065;  -53.173;42923.641; 0.00046; 0.00003
 827.87;  -25.165;  -20.273;42849.914;-0.00044;-0.00003
 828.43;  -23.065;  -26.873;42678.484; 0.00035; 0.00002
 829.00;  -40.665;  -65.173;42585.656; 0.00223; 0.00015
 829.57;   -8.764;  -25.773;42440.332; 0.00155; 0.00011
 830.13;  -67.564;  -73.272;42015.703; 0.00052; 0.00004
 830.70;  -48.164;  -56.972;41864.375; 0.00081; 0.00006
 831.27;  -29.064;  -33.672;41474.148; 0.00043; 0.00003
 831.83;  -55.064;  -53.372;41387.020;-0.00016;-0.00001
 832.40;  -30.363;  -22.572;41185.090;-0.00073;-0.00005
 832.97;    8.537;    6.828;41002.664; 0.00016; 0.00001
 833.53;  -30.463;  -43.071;41077.836; 0.00119; 0.00008
 834.10;  -27.263;  -39.071;40836.008; 0.00112; 0.00008
 834.66;  -34.863;  -53.871;40648.781; 0.00182; 0.00013
 835.23;  -22.963;  -42.671;40573.055; 0.00189; 0.00013
 835.80;  -39.162;  -61.771;40440.824; 0.00219; 0.00015
 836.36;  -38.562;  -41.671;40334.199; 0.00030; 0.00002
 836.93;    1.538;  -18.970;40271.168; 0.00200; 0.00014
 837.49;   32.438;   18.630;40151.543; 0.00135; 0.00009
 838.06;  -21.062;  -28.470;40058.313; 0.00073; 0.00005
 838.62;  -34.161;  -48.070;39899.086; 0.00137; 0.00010
 839.19;  -26.861;  -37.770;39905.758; 0.00108; 0.00008
 839.76;  -30.461;  -32.870;39728.430; 0.00024; 0.00002
 840.32;  -61.661;  -66.470;39485.805; 0.00048; 0.00003
 840.89;  167.039;  172.031;39678.176;-0.00050;-0.00004
 841.45;  -26.861;  -25.669;39488.348;-0.00012;-0.00001
 842.02;  -63.260;  -76.369;39167.621; 0.00133; 0.00009
 842.58;  -53.560;  -50.069;39187.094;-0.00036;-0.00003
 843.15;    9.640;   -4.269;39180.465; 0.00143; 0.00010
 843.71;  -44.760;  -48.569;39060.836; 0.00039; 0.00003
 844.28;  -74.160;  -79.768;38864.809; 0.00058; 0.00004
 844.84;  -28.659;  -21.268;38862.082;-0.00077;-0.00005
 845.41;  -38.659;  -51.168;38615.355; 0.00131; 0.00009
 845.97;  -56.459;  -56.768;38402.527; 0.00003; 0.00000
 846.54;  -54.959;  -51.168;38075.898;-0.00040;-0.00003
 847.10;  -27.859;  -35.168;38229.371; 0.00077; 0.00005
 847.67;  -60.959;  -58.667;37966.344;-0.00024;-0.00002
 848.23;  -30.958;  -48.767;38067.414; 0.00190; 0.00013
 848.80;    1.242;  -17.467;38042.086; 0.00200; 0.00014
 849.36;  -31.158;  -46.167;37738.262; 0.00162; 0.00011
 849.93;  -22.058;  -31.867;37655.934; 0.00106; 0.00008
 850.49;  -26.558;  -39.867;37582.004; 0.00145; 0.00010
 851.06;  -51.357;  -69.367;37505.277; 0.00196; 0.00014
 851.62;  -51.557;  -54.266;37262.051; 0.00030; 0.00002
 852.19;  -36.057;  -42.866;37233.020; 0.00075; 0.00005
 852.75;  -48.957;  -60.466;37155.895; 0.00127; 0.00009
 853.32;  -30.357;  -28.666;37105.266;-0.00019;-0.00001
 853.88;  -38.457;  -39.666;36902.438; 0.00014; 0.00001
 854.45;  -13.456;  -18.166;37137.012; 0.00053; 0.00004
 855.01;    6.344;   -2.965;37010.383; 0.00104; 0.00007
 855.57;  -40.756;  -51.465;36921.453; 0.00121; 0.00009
 856.14;  -52.956;  -63.265;36626.629; 0.00117; 0.00008
 856.70;  -62.256;  -49.365;36714.199;-0.00147;-0.00010
 857.27;  -33.955;  -44.865;36510.172; 0.00125; 0.00009
 857.83;  -87.355;  -84.265;36357.344;-0.00036;-0.00003
 858.40;    3.245;   -2.264;36322.215; 0.00063; 0.00005
 858.96;  -47.355;  -44.364;36140.387;-0.00035;-0.00002
 859.52;  -27.255;  -42.264;36171.262; 0.00174; 0.00012
 860.09;  -32.555;  -43.564;35921.734; 0.00129; 0.00009
 860.65;  -33.654;  -34.264;35764.504; 0.00007; 0.00001
 861.22;  -41.554;  -42.764;35727.977; 0.00014; 0.00001
 861.78;  -17.454;  -17.363;35638.051;-0.00001; 0.00000
 862.34;  -33.954;  -50.163;35649.922; 0.00192; 0.00014
 862.91;  -28.854;  -41.863;35682.594; 0.00154; 0.00011
 863.47;   72.147;   60.137;35224.566; 0.00144; 0.00010
 864.03;  -67.953;  -59.263;35401.738;-0.00104;-0.00008
 864.60;   -7.953;  -21.663;35293.512; 0.00165; 0.00012
 865.16;  -70.253;  -66.963;35132.184;-0.00040;-0.00003
 865.73;  -41.253;  -31.262;35111.855;-0.00121;-0.00009
 866.29;   87.147;   71.938;35043.527; 0.00185; 0.00013
 866.85;  -65.152;  -70.162;34721.301; 0.00061; 0.00004
 867.42;  -33.352;  -40.162;34616.371; 0.00084; 0.00006
 867.98;  -56.352;  -64.262;34527.145; 0.00098; 0.00007
 868.54;  -14.152;  -24.162;34441.617; 0.00124; 0.00009
 869.11;  -70.652;  -61.461;34366.289;-0.00114;-0.00008
 869.67;  -33.051;  -42.861;34234.863; 0.00123; 0.00009
 870.23;  -49.851;  -40.861;34228.133;-0.00113;-0.00008
 870.80;  -31.951;  -52.761;33878.707; 0.00265; 0.00019
 871.36;  -53.851;  -63.361;33584.379; 0.00123; 0.00009
 871.92;   19.849;    8.139;33514.352; 0.00152; 0.00011
 872.48;  -62.051;  -60.360;33352.023;-0.00022;-0.00002
 873.05;  -44.350;  -35.560;33107.297;-0.00116;-0.00008
 873.61;  -31.750;  -45.160;33006.969; 0.00177; 0.00013
 874.17;  -35.750;  -40.060;32897.238; 0.00057; 0.00004
 874.74;  -52.350;  -53.560;32747.340; 0.00016; 0.00001
 875.30;  -29.750;  -37.760;32872.738; 0.00107; 0.00008
 875.86;  -43.650;  -51.360;32962.238; 0.00103; 0.00008
 876.42;  -58.450;  -67.560;32924.941; 0.00122; 0.00009
 876.99;  -34.950;  -48.260;32876.039; 0.00179; 0.00013
 877.55;  -39.850;  -37.360;32981.738;-0.00033;-0.00002
 878.11;  -13.550;  -22.860;32831.238; 0.00125; 0.00009
 878.68;  -27.350;  -32.460;32682.740; 0.00069; 0.00005
 879.24;  -35.150;  -39.460;32631.039; 0.00059; 0.00004
 879.80;  -17.950;  -20.160;32451.240; 0.00030; 0.00002
 880.36;  -23.550;  -46.060;32387.539; 0.00308; 0.00023
 880.92;  -21.250;  -26.660;32337.240; 0.00074; 0.00005
 881.49;  -25.550;  -40.960;32357.840; 0.00212; 0.00016
 882.05;  -22.350;  -23.460;32220.439; 0.00015; 0.00001
 882.61;   16.250;   10.040;32083.240; 0.00086; 0.00006
 883.17;  -22.150;  -41.360;32091.740; 0.00267; 0.00020
 883.74;  -28.450;  -34.960;32096.439; 0.00091; 0.00007
 884.30;  -51.150;  -64.260;31958.539; 0.00184; 0.00014
 884.86;    0.250;   -1.260;32176.439; 0.00021; 0.00002
 885.42;  -38.750;  -51.460;32150.439; 0.00178; 0.00013
 885.98;  -52.850;  -57.160;32145.740; 0.00060; 0.00004
 886.55;  -36.350;  -37.560;32321.740; 0.00017; 0.00001
 887.11;  -16.450;  -30.260;32423.840; 0.00193; 0.00014
 887.67;  -23.450;  -20.460;32421.840;-0.00042;-0.00003
 888.23;  -42.950;  -65.360;32570.340; 0.00312; 0.00023
 888.79;   -7.550;  -21.260;32596.740; 0.00191; 0.00014
 889.35;  -60.250;  -61.160;32642.240; 0.00013; 0.00001
 889.92;    0.550;  -17.060;32765.641; 0.00245; 0.00018
 890.48;  116.050;  103.240;32825.039; 0.00177; 0.00013
 891.04;  -41.050;  -43.860;32990.238; 0.00039; 0.00003
 891.60;  -49.350;  -53.960;33047.441; 0.00064; 0.00005
 892.16;  -29.850;  -20.360;33188.941;-0.00130;-0.00010
 892.72;  -49.450;  -52.660;33357.141; 0.00044; 0.00003
 893.29;  -50.350;  -67.860;33494.738; 0.00238; 0.00018
 893.85;  -44.650;  -38.260;33665.738;-0.00087;-0.00006
 894.41;  -59.850;  -50.860;33926.641;-0.00122;-0.00009
 894.97;   -6.550;  -10.160;33988.340; 0.00049; 0.00004
 895.53;  -46.650;  -52.860;34219.238; 0.00083; 0.00006
 896.09;  -21.550;  -52.360;34269.340; 0.00413; 0.00031
 896.65;  -37.650;  -45.760;34260.641; 0.00109; 0.00008
 897.21;  -17.450;  -11.360;34229.039;-0.00082;-0.00006
 897.77;  -26.750;  -39.360;34355.941; 0.00169; 0.00013
 898.34;  -29.350;  -35.160;34076.141; 0.00078; 0.00006
 898.90;  -14.650;  -22.960;33978.840; 0.00113; 0.00008
 899.46;  -11.150;  -22.260;34144.141; 0.00151; 0.00011
 900.02;   23.950;    5.240;33674.641; 0.00256; 0.00019
 900.58;  -27.050;  -25.260;33671.941;-0.00025;-0.00002
 901.14;    8.850;   11.740;33538.441;-0.00040;-0.00003
 901.70;    0.550;  -14.960;33275.141; 0.00216; 0.00016
 902.26;  -45.150;  -55.160;33006.840; 0.00141; 0.00011
 902.82;    3.950;   -4.560;33014.641; 0.00120; 0.00009
 903.38;  -43.250;  -45.360;32705.539; 0.00030; 0.00002
 903.94;   -2.350;  -10.360;32674.340; 0.00115; 0.00009
 904.50;  -41.350;  -32.260;32451.039;-0.00131;-0.00010
 905.06;  -31.850;  -40.660;32229.039; 0.00128; 0.00010
 905.62;  -16.050;  -22.960;31916.439; 0.00101; 0.00008
 906.18;  -27.250;  -39.760;31805.539; 0.00185; 0.00014
 906.74;  -53.450;  -67.460;31546.039; 0.00208; 0.00016
 907.30;    8.550;   -3.160;31284.939; 0.00176; 0.00013
 907.86;    3.150;   -7.460;31088.240; 0.00160; 0.00012
 908.42;   21.250;   20.040;30928.240; 0.00018; 0.00001
 908.98;    2.850;    4.940;30791.240;-0.00032;-0.00002
 909.54;  -18.650;  -10.960;30862.939;-0.00118;-0.00009
 910.10;   -4.050;    7.340;30640.740;-0.00176;-0.00013
 910.66;  -23.950;  -22.660;30446.240;-0.00020;-0.00002
 911.22;  -23.050;  -22.860;30321.141;-0.00003; 0.00000
 911.78;  -72.250;  -62.760;29941.939;-0.00150;-0.00011
 912.34;   -2.350;    0.540;29914.439;-0.00046;-0.00003
 912.90;    5.350;    8.240;29777.039;-0.00046;-0.00004
 913.46;  -56.650;  -57.660;29485.039; 0.00016; 0.00001
 914.02;  -37.850;  -50.860;29482.439; 0.00210; 0.00016
 914.58;  -35.950;  -34.560;29279.641;-0.00023;-0.00002
 915.14;  -41.750;  -39.560;29122.939;-0.00036;-0.00003
 915.70;  -12.250;  -26.460;29026.539; 0.00234; 0.00018
 916.26;   -9.050;  -11.060;28810.641; 0.00033; 0.00003
 916.82;  -49.150;  -53.760;28635.939; 0.00077; 0.00006
 917.38;   -3.850;   -4.360;28403.039; 0.00009; 0.00001
 917.94;   84.650;   77.740;28214.240; 0.00116; 0.00009
 918.50;  -41.350;  -43.160;28052.641; 0.00031; 0.00002
 919.06;   -4.850;  -12.660;27890.340; 0.00133; 0.00010
 919.62;  -36.450;  -44.260;27654.439; 0.00135; 0.00010
 920.18;  -19.450;  -19.560;27634.840; 0.00002; 0.00000
 920.73;  -27.350;  -28.760;27550.340; 0.00024; 0.00002
 921.29;  -38.150;  -39.960;27017.641; 0.00032; 0.00002
 921.85;  -13.850;  -19.360;27000.840; 0.00097; 0.00007
 922.41;  -46.950;  -48.960;26863.840; 0.00035; 0.00003
 922.97;  -31.450;  -28.260;26599.539;-0.00057;-0.00004
 923.53;    0.750;    6.840;26105.939;-0.00110;-0.00008
 924.09;  -30.650;  -39.960;26005.141; 0.00169; 0.00013
 924.65;  -29.250;  -44.460;25817.740; 0.00278; 0.00022
 925.21;  -41.250;  -38.360;25588.039;-0.00053;-0.00004
 925.76;  -31.650;  -37.160;25424.439; 0.00102; 0.00008
 926.32;  -15.950;  -18.460;25229.539; 0.00047; 0.00004
 926.88;  -28.950;  -26.860;25060.340;-0.00039;-0.00003
 927.44;  -18.150;  -30.560;24711.039; 0.00236; 0.00018
 928.00;  104.150;  103.140;24361.641; 0.00019; 0.00002
 928.56;   -9.750;  -24.160;24109.539; 0.00278; 0.00022
 929.12;  -24.050;  -22.460;23807.740;-0.00031;-0.00002
 929.67;   10.150;   11.240;23666.840;-0.00021;-0.00002
 930.23;  -44.550;  -44.060;23355.141;-0.00010;-0.00001
 930.79;  -16.250;  -22.260;22957.439; 0.00120; 0.00009
 931.35;  -39.450;  -33.760;22612.039;-0.00115;-0.00009
 931.91;  -52.750;  -43.460;22275.939;-0.00190;-0.00015
 932.46;   -2.350;  -17.460;21815.141; 0.00312; 0.00024
 933.02;  -41.550;  -44.760;21264.539; 0.00067; 0.00005
 933.58;  -36.350;  -48.760;20844.740; 0.00265; 0.00021
 934.14;  -54.650;  -75.860;20402.141; 0.00462; 0.00036
 934.70;  -47.450;  -52.060;19642.840; 0.00103; 0.00008
 935.25;  -23.950;  -32.560;19307.439; 0.00197; 0.00015
 935.81;   53.350;   46.540;18676.840; 0.00161; 0.00013
 936.37;  -31.950;  -41.860;17979.240; 0.00241; 0.00019
 936.93;    3.350;    4.940;17501.539;-0.00040;-0.00003
 937.49;  -32.450;  -33.060;16906.439; 0.00016; 0.00001
 938.04;  -26.450;  -27.860;16194.840; 0.00039; 0.00003
 938.60;  -36.950;  -49.460;15755.940; 0.00354; 0.00028
 939.16;  -26.350;  -41.560;15186.640; 0.00447; 0.00035
 939.72;  -57.350;  -45.660;14717.140;-0.00355;-0.00028
 940.27;   19.850;    5.340;14265.840; 0.00455; 0.00036
 940.83;  -20.650;  -30.960;14046.340; 0.00332; 0.00026
 941.39;  -10.750;  -21.960;13687.040; 0.00368; 0.00029
 941.94;  -58.250;  -74.960;13350.740; 0.00561; 0.00044
 942.50;  -19.050;  -32.560;13158.740; 0.00460; 0.00036
 943.06;   -3.650;    5.340;13027.240;-0.00309;-0.00024
 943.62;    8.950;    9.540;12943.740;-0.00020;-0.00002
 944.17;    1.750;  -21.460;12754.540; 0.00806; 0.00064
 944.73;   37.850;   20.940;12761.440; 0.00586; 0.00046
 945.29;   -2.750;  -10.860;12770.440; 0.00280; 0.00022
 945.84;  -51.850;  -58.560;12694.340; 0.00231; 0.00018
 946.40;  -54.950;  -63.660;12711.140; 0.00297; 0.00024
 946.96;   -2.550;    1.240;12656.240;-0.00129;-0.00010
 947.52;  -29.850;  -40.660;12695.840; 0.00365; 0.00029
 948.07;  -27.250;  -35.260;12718.240; 0.00268; 0.00021
 948.63;   23.650;   21.340;12818.540; 0.00077; 0.00006
 949.19;  -27.950;  -30.760;12749.440; 0.00092; 0.00007
 949.74;  -75.850;  -80.460;12760.940; 0.00150; 0.00012
 950.30;  -18.950;  -30.260;12769.340; 0.00364; 0.00029
 950.85;   -4.950;  -22.260;12864.940; 0.00553; 0.00044
 951.41;  -53.950;  -58.160;12893.340; 0.00133; 0.00011
 951.97;    2.250;    5.540;12921.640;-0.00103;-0.00008
 952.52;  -15.450;  -11.260;12865.640;-0.00130;-0.00010
 953.08;  -28.150;  -37.660;12883.640; 0.00293; 0.00023
 953.64;  -33.250;  -29.560;12846.440;-0.00113;-0.00009
 954.19;    6.250;   -1.760;12893.040; 0.00242; 0.00019
 954.75;   18.950;   10.140;12872.140; 0.00265; 0.00021
 955.31;    9.450;    8.440;12867.940; 0.00030; 0.00002
 955.86;  -42.850;  -51.160;12774.540; 0.00247; 0.00020
 956.42;  -44.850;  -47.560;12672.940; 0.00080; 0.00006
 956.97;  -41.150;  -60.260;12694.140; 0.00563; 0.00045
 957.53;  -24.150;  -30.260;12611.240; 0.00180; 0.00014
 958.09;  -22.850;  -20.760;12552.340;-0.00061;-0.00005
 958.64;  -23.850;  -20.260;12570.040;-0.00105;-0.00008
 959.20;  -19.050;  -21.960;12548.940; 0.00085; 0.00007
 959.75;  -23.850;  -29.960;12427.440; 0.00178; 0.00014
 960.31;  -32.150;  -33.860;12418.840; 0.00050; 0.00004
 960.86;   22.350;   19.440;12464.640; 0.00084; 0.00007
 961.42;  -24.350;  -29.560;12414.340; 0.00151; 0.00012
 961.98;  -54.450;  -50.460;12345.240;-0.00116;-0.00009
 962.53;  -37.050;  -42.460;12397.740; 0.00157; 0.00013
 963.09;   26.950;   11.640;12366.040; 0.00443; 0.00036
 963.64;   20.650;    6.040;12375.340; 0.00423; 0.00034
 964.20;  -63.850;  -62.260;12267.840;-0.00046;-0.00004
 964.75;  -21.150;  -24.260;12291.440; 0.00090; 0.00007
 965.31;  -54.050;  -74.160;12248.040; 0.00586; 0.00047
 965.86;  -30.150;  -36.360;12229.140; 0.00181; 0.00015
 966.42;   38.650;   34.440;12234.340; 0.00123; 0.00010
 966.97;   20.650;    3.540;12259.840; 0.00500; 0.00040
 967.53;   -6.950;  -22.060;12095.440; 0.00445; 0.00036
 968.08;  -47.150;  -47.460;12157.440; 0.00009; 0.00001
 968.64;    8.350;   -7.160;12042.340; 0.00459; 0.00037
 969.19;   -0.850;   -3.160;12075.540; 0.00069; 0.00006
 969.75;   13.050;   14.040;12006.840;-0.00029;-0.00002
 970.30;   -3.450;   -8.460;12064.140; 0.00149; 0.00012
 970.86;   12.650;   -6.260;11971.840; 0.00564; 0.00046
 971.41;  -30.750;  -25.960;11845.240;-0.00144;-0.00012
 971.97;   -3.450;  -14.860;11835.640; 0.00344; 0.00028
 972.52;  -54.350;  -55.660;11665.740; 0.00040; 0.00003
 973.08;   13.350;   18.540;11714.240;-0.00158;-0.00013
 973.63;   41.450;   39.540;11663.040; 0.00058; 0.00005
 974.19;   12.850;   -9.060;11593.140; 0.00673; 0.00055
 974.74;   -1.250;  -14.360;11666.640; 0.00405; 0.00033
 975.29;  232.250;  203.340;11620.240; 0.00896; 0.00073
 975.85;   43.450;   32.040;11558.040; 0.00355; 0.00029
 976.40;   29.150;    8.740;11484.040; 0.00642; 0.00052
 976.96;   15.250;    4.240;11406.940; 0.00348; 0.00028
 977.51;  -20.750;  -29.860;11398.840; 0.00289; 0.00024
 978.07;  -33.950;  -31.760;11290.240;-0.00070;-0.00006
 978.62;   10.550;    1.440;11281.240; 0.00293; 0.00024
 979.17;  300.250;  273.840;11228.340; 0.00853; 0.00070
 979.73;  -33.050;  -36.360;11150.440; 0.00108; 0.00009
 980.28;   14.350;    6.440;11178.640; 0.00258; 0.00021
 980.84;    7.250;    7.040;11049.840; 0.00007; 0.00001
 981.39;  -27.350;  -30.960;11067.040; 0.00119; 0.00010
 981.94;    3.550;    4.640;10985.940;-0.00036;-0.00003
 982.50;   -0.450;  -14.560;10875.540; 0.00474; 0.00039
 983.05;   -5.950;   -3.160;10793.640;-0.00094;-0.00008
 983.60;   51.750;   45.340;10866.340; 0.00217; 0.00018
 984.16;   20.150;   18.140;10723.040; 0.00069; 0.00006
 984.71;    5.350;    0.140;10737.640; 0.00179; 0.00015
 985.27;   -7.750;  -30.160;10610.940; 0.00782; 0.00064
 985.82;    3.850;    5.540;10600.940;-0.00059;-0.00005
 986.37;   26.950;   20.340;10579.940; 0.00234; 0.00019
 986.93;    4.950;   -7.560;10493.140; 0.00445; 0.00037
 987.48;  -36.050;  -38.060;10429.940; 0.00072; 0.00006
 988.03;   -2.650;  -12.360;10433.640; 0.00350; 0.00029
 988.59;  -27.450;  -21.760;10379.140;-0.00206;-0.00017
 989.14;    3.150;   -6.160;10316.040; 0.00342; 0.00028
 989.69;  -27.050;  -20.160;10319.540;-0.00255;-0.00021
 990.24;   -9.150;  -22.960;10192.540; 0.00516; 0.00043
 990.80;  -27.550;  -35.660;10144.240; 0.00306; 0.00025
 991.35;  -36.650;  -51.160;10015.240; 0.00551; 0.00046
 991.90;    8.450;    1.340;10114.540; 0.00271; 0.00022
 992.46;  -15.450;  -37.460;10020.740; 0.00848; 0.00070
 993.01;  -37.450;  -36.260; 9927.640;-0.00046;-0.00004
 993.56;  148.450;  119.940; 9917.940; 0.01118; 0.00093
 994.11;   -7.850;  -11.460; 9840.440; 0.00143; 0.00012
 994.67;  -22.150;  -21.260; 9785.640;-0.00036;-0.00003
 995.22;  -27.850;  -30.460; 9703.340; 0.00105; 0.00009
 995.77;  -32.850;  -38.960; 9635.340; 0.00248; 0.00021
 996.33;    0.150;   -4.560; 9637.840; 0.00193; 0.00016
 996.88;  -22.950;  -27.760; 9517.540; 0.00198; 0.00017
 997.43;  -32.150;  -28.760; 9472.340;-0.00142;-0.00012
 997.98;   17.850;    3.140; 9370.640; 0.00621; 0.00052
 998.53;   13.950;   21.740; 9336.240;-0.00332;-0.00028
 999.09;  -18.950;  -30.660; 9233.940; 0.00505; 0.00042
 999.64;  -30.750;  -51.060; 9121.140; 0.00884; 0.00074
1000.19;  -34.450;  -44.160; 9086.640; 0.00427; 0.00036
1000.74;  -44.850;  -57.060; 9052.540; 0.00544; 0.00046
1001.30;  -26.050;  -19.160; 8993.240;-0.00310;-0.00026
1001.85;  -12.650;  -25.660; 8888.440; 0.00592; 0.00050
1002.40;  -30.750;  -49.260; 8808.140; 0.00854; 0.00072
1002.95;   -1.950;    2.840; 8765.740;-0.00224;-0.00019
1003.50;   18.350;   15.340; 8714.040; 0.00143; 0.00012
1004.06;  -18.250;  -28.160; 8593.740; 0.00480; 0.00040
1004.61;  115.850;  109.140; 8532.040; 0.00330; 0.00028
1005.16;  167.550;  142.040; 8522.340; 0.01271; 0.00107
1005.71;   22.750;   -2.660; 8537.740; 0.01279; 0.00108
1006.26;  -19.850;  -31.660; 8503.640; 0.00603; 0.00051
1006.81;  -58.550;  -57.860; 8549.940;-0.00035;-0.00003
1007.37;   -8.750;  -12.460; 8518.340; 0.00193; 0.00016
1007.92;  -54.650;  -58.960; 8547.040; 0.00224; 0.00019
1008.47;   -0.150;   -9.560; 8650.340; 0.00489; 0.00041
1009.02;   -5.150;  -14.960; 8730.740; 0.00511; 0.00043
1009.57;   26.250;    5.940; 8770.540; 0.01046; 0.00088
1010.12;  -43.950;  -70.360; 8819.940; 0.01343; 0.00113
1010.67;    1.050;   -4.160; 8938.440; 0.00259; 0.00022
1011.22;    6.950;    5.640; 9023.540; 0.00064; 0.00005
1011.78;  -31.250;  -42.460; 9062.440; 0.00536; 0.00045
1012.33;  -50.450;  -45.560; 9068.940;-0.00230;-0.00019
1012.88;   38.650;   28.740; 9182.740; 0.00460; 0.00039
1013.43;   -8.550;  -11.760; 9165.640; 0.00149; 0.00013
1013.98;   14.150;    6.840; 9256.140; 0.00340; 0.00029
1014.53;  -32.350;  -34.460; 9202.140; 0.00099; 0.00008
1015.08;  -37.750;  -44.660; 9159.840; 0.00329; 0.00028
1015.63;  -29.450;  -38.860; 9075.540; 0.00456; 0.00039
1016.18;  -44.350;  -49.160; 9064.740; 0.00237; 0.00020
1016.73;    1.950;    1.040; 8920.440; 0.00046; 0.00004
1017.28;   77.550;   59.040; 8837.240; 0.00952; 0.00081
1017.84;  -26.650;  -23.560; 8738.740;-0.00161;-0.00014
1018.39;  -19.950;  -27.260; 8609.540; 0.00390; 0.00033
1018.94;  -29.150;  -47.760; 8503.540; 0.01010; 0.00086
1019.49;   25.650;   14.140; 8362.940; 0.00640; 0.00055
1020.04;   42.150;   26.240; 8286.340; 0.00901; 0.00077
1020.59;  -23.450;  -34.360; 8098.540; 0.00630; 0.00054
1021.14;  -28.050;  -19.960; 8089.340;-0.00474;-0.00040
1021.69;  -22.350;  -47.960; 7874.640; 0.01530; 0.00131
1022.24;  -29.250;  -27.460; 7839.140;-0.00109;-0.00009
1022.79;    7.950;   11.940; 7670.040;-0.00246;-0.00021
1023.34;   -7.950;  -24.560; 7596.740; 0.01042; 0.00089
1023.89;   -7.150;  -12.960; 7513.240; 0.00372; 0.00032
1024.44;  -14.750;  -15.060; 7382.240; 0.00020; 0.00002
1024.99;    2.850;    0.040; 7310.940; 0.00185; 0.00016
1025.54;   48.050;   33.840; 7213.140; 0.00950; 0.00081
1026.09;  -35.050;  -34.860; 7156.540;-0.00013;-0.00001
1026.64;  -42.850;  -36.260; 7033.140;-0.00456;-0.00039
1027.19;   11.550;    6.240; 6951.540; 0.00375; 0.00032
1027.74;  -27.250;  -25.360; 6898.540;-0.00135;-0.00012
1028.29;  -18.250;  -39.360; 6785.340; 0.01539; 0.00132
1028.84;   38.650;   41.840; 6689.140;-0.00236;-0.00020
1029.39;   14.550;    3.440; 6693.440; 0.00829; 0.00071
1029.94;  -26.550;  -45.260; 6563.140; 0.01425; 0.00123
1030.48;  -29.550;  -47.960; 6489.840; 0.01416; 0.00122
1031.03;  -37.150;  -33.460; 6408.040;-0.00291;-0.00025
1031.58;    1.050;   -4.360; 6390.940; 0.00432; 0.00037
1032.13;  -41.350;  -46.760; 6251.740; 0.00439; 0.00038
1032.68;  -16.150;  -40.060; 6173.540; 0.01974; 0.00170
1033.23;  -19.950;  -40.760; 6056.340; 0.01736; 0.00150
1033.78;  -31.750;  -34.060; 5982.840; 0.00196; 0.00017
1034.33;  -17.850;  -18.960; 5956.340; 0.00096; 0.00008
1034.88;   36.550;   24.240; 5884.440; 0.01075; 0.00093
1035.43;  -41.650;  -43.260; 5797.040; 0.00143; 0.00012
1035.98;  -25.150;  -24.560; 5726.840;-0.00053;-0.00005
1036.52;    8.250;   -7.860; 5703.140; 0.01475; 0.00128
1037.07;    7.150;   12.340; 5634.340;-0.00483;-0.00042
1037.62;   11.750;   -7.260; 5538.840; 0.01794; 0.00156
1038.17;  100.050;   72.140; 5465.440; 0.02673; 0.00232
1038.72;  -25.350;  -21.960; 5419.540;-0.00330;-0.00029
1039.27;  -38.150;  -19.060; 5313.940;-0.01893;-0.00164
1039.82;    0.750;   -9.760; 5277.140; 0.01061; 0.00092
1040.37;  -37.850;  -47.360; 5173.340; 0.00974; 0.00085
1040.91;  -31.350;  -44.660; 5135.140; 0.01383; 0.00120
1041.46;  -20.250;  -29.060; 5014.240; 0.00934; 0.00081
1042.01;  -36.750;  -49.760; 4962.740; 0.01396; 0.00122
1042.56;  -28.850;  -31.860; 4871.240; 0.00329; 0.00029
1043.11;   -4.950;   -9.360; 4860.340; 0.00488; 0.00043
1043.66;   18.950;   24.240; 4779.540;-0.00596;-0.00052
1044.20;    1.750;    2.340; 4738.440;-0.00068;-0.00006
1044.75;   24.550;   14.740; 4683.040; 0.01145; 0.00100
1045.30;   37.350;   24.540; 4585.740; 0.01518; 0.00133
1045.85;  -12.050;  -25.760; 4510.240; 0.01651; 0.00144
1046.40;  -25.350;  -35.760; 4447.940; 0.01277; 0.00112
1046.94;  -23.150;  -26.260; 4426.440; 0.00388; 0.00034
1047.49;   -7.950;  -23.660; 4272.140; 0.01993; 0.00174
1048.04;   37.450;   37.540; 4311.640;-0.00012;-0.00001
1048.59;  -46.950;  -42.360; 4233.240;-0.00601;-0.00053
1049.13;   95.950;   81.140; 4211.040; 0.01971; 0.00173
1049.68;  -42.750;  -49.960; 4059.940; 0.00983; 0.00086
1050.23;    0.550;   -0.060; 4062.640; 0.00084; 0.00007
1050.78;  -46.750;  -55.560; 3990.540; 0.01232; 0.00108
1051.32;  -20.750;  -29.060; 3946.840; 0.01181; 0.00104
1051.87;  190.650;  172.040; 3869.840; 0.02699; 0.00237
1052.42;   -4.550;  -12.460; 3825.340; 0.01167; 0.00103
1052.97;  186.150;  152.740; 3792.340; 0.04979; 0.00438
1053.51;  -17.050;  -20.360; 3734.840; 0.00502; 0.00044
1054.06;   29.450;   16.740; 3661.740; 0.01955; 0.00172
1054.61;    6.850;    5.140; 3613.040; 0.00269; 0.00024
1055.16;  -31.950;  -44.160; 3555.440; 0.01939; 0.00171
1055.70;  -11.550;  -25.860; 3441.340; 0.02334; 0.00206
1056.25;  -46.650;  -59.060; 3388.740; 0.02061; 0.00182
1056.80;  -29.150;  -37.360; 3359.040; 0.01380; 0.00122
1057.34;  -30.850;  -46.760; 3323.340; 0.02718; 0.00240
1057.89;  -10.850;  -38.760; 3294.340; 0.04838; 0.00428
1058.44;   14.050;    3.040; 3243.440; 0.01937; 0.00171
1058.98;  -30.550;  -34.660; 3181.040; 0.00738; 0.00065
1059.53;    1.450;  -18.360; 3089.840; 0.03620; 0.00321
1060.08;   -9.050;  -21.560; 3095.640; 0.02327; 0.00206
1060.62;   91.750;   80.440; 3037.940; 0.02129; 0.00189
1061.17;  -47.950;  -35.060; 2981.040;-0.02470;-0.00219
1061.72;  -18.450;  -17.560; 2925.640;-0.00174;-0.00015
1062.26;   11.450;    0.640; 2887.140; 0.02150; 0.00191
1062.81;   15.050;    2.640; 2868.640; 0.02521; 0.00224
1063.36;   -0.250;   -3.960; 2810.640; 0.00764; 0.00068
1063.90;    1.050;    2.840; 2776.140;-0.00376;-0.00033
1064.45;   -4.450;  -15.760; 2733.940; 0.02418; 0.00215
1064.99;  -12.750;  -21.260; 2665.640; 0.01855; 0.00165
1065.54;   -9.150;  -27.260; 2665.140; 0.04011; 0.00357
1066.09;   22.350;    1.540; 2624.740; 0.04693; 0.00418
1066.63;    4.850;   -4.460; 2613.240; 0.02127; 0.00190
1067.18;   61.850;   50.140; 2546.940; 0.02739; 0.00244
1067.72;    3.950;   -8.860; 2507.940; 0.03042; 0.00271
1068.27;  -26.550;  -31.060; 2435.040; 0.01085; 0.00097
1068.82;   28.950;   24.740; 2427.340; 0.01031; 0.00092
1069.36;   -5.750;   -1.560; 2384.540;-0.01042;-0.00093
1069.91;  -17.250;  -27.160; 2395.540; 0.02491; 0.00223
1070.45;    0.750;   -9.660; 2355.540; 0.02666; 0.00238
1071.00;  -30.150;  -43.760; 2277.640; 0.03529; 0.00316
1071.54;   -4.350;  -14.260; 2266.040; 0.02615; 0.00234
1072.09;   67.650;   61.540; 2286.540; 0.01639; 0.00147
1072.64;    1.850;   -2.360; 2225.240; 0.01150; 0.00103
1073.18;   90.750;   75.840; 2212.340; 0.04105; 0.00368
1073.73;  146.350;  126.340; 2142.340; 0.05609; 0.00503
1074.27;  -12.550;  -35.860; 2113.340; 0.06593; 0.00592
1074.82;   24.950;    9.440; 2108.140; 0.04463; 0.00401
1075.36;   28.750;    9.140; 2087.140; 0.05737; 0.00516
1075.91;    8.950;    4.140; 2074.740; 0.01426; 0.00128
1076.45;   10.450;   13.340; 2031.240;-0.00867;-0.00078
1077.00;   -7.750;  -14.560; 1990.740; 0.02074; 0.00187
1077.54;   15.950;   19.840; 2002.540;-0.01204;-0.00108
1078.09;   23.950;   22.840; 1946.540; 0.00347; 0.00031
1078.63;  -17.450;  -33.660; 1925.340; 0.05141; 0.00463
1079.18;   -6.250;  -25.660; 1902.340; 0.06261; 0.00565
1079.72;   22.750;    8.540; 1872.140; 0.04636; 0.00418
1080.27;  -10.650;  -28.260; 1833.740; 0.05840; 0.00527
1080.81;    2.450;  -27.660; 1806.540; 0.10109; 0.00913
1081.36;  -31.150;  -49.360; 1759.940; 0.06220; 0.00562
1081.90;   60.650;   47.640; 1773.640; 0.04500; 0.00407
1082.44;   44.350;   23.340; 1742.540; 0.07397; 0.00669
1082.99;   30.350;   14.540; 1720.040; 0.05630; 0.00510
1083.53;   -2.150;  -15.760; 1669.840; 0.04924; 0.00446
1084.08;   28.850;   12.140; 1694.940; 0.06123; 0.00555
1084.62;   10.950;   11.540; 1650.140;-0.00220;-0.00020
1085.17;    3.650;   -6.960; 1644.640; 0.03975; 0.00360
1085.71;  -12.750;  -16.460; 1604.940; 0.01412; 0.00128
1086.25;   21.150;   13.040; 1614.040; 0.03139; 0.00285
1086.80;   13.350;   10.940; 1558.740; 0.00950; 0.00086
1087.34;   10.350;    0.740; 1549.140; 0.03825; 0.00348
1087.89;  -10.350;  -21.460; 1518.340; 0.04485; 0.00408
1088.43;   27.850;   12.440; 1515.840; 0.06301; 0.00573
1088.97;   15.850;    3.040; 1494.940; 0.05317; 0.00484
1089.52;  190.350;  167.440; 1492.140; 0.09649; 0.00879
1090.06;   87.450;   65.840; 1451.240; 0.09213; 0.00839
1090.61;   17.250;    6.040; 1435.740; 0.04872; 0.00444
1091.15;  157.950;  140.040; 1394.140; 0.07909; 0.00721
1091.69;   29.150;   17.840; 1365.740; 0.05068; 0.00462
1092.24;   17.150;    9.140; 1368.940; 0.03643; 0.00333
1092.78;   27.650;   28.540; 1337.940;-0.00413;-0.00038
1093.32;   23.050;   11.840; 1350.740; 0.05194; 0.00475
1093.87;   37.250;   16.840; 1327.440; 0.09684; 0.00885
1094.41;   -5.750;  -11.260; 1272.140; 0.02648; 0.00242
1094.95;  128.650;  110.440; 1282.440; 0.08847; 0.00810
1095.50;  -20.250;  -27.860; 1250.140; 0.03782; 0.00346
1096.04;   31.250;   45.340; 1268.140;-0.07052;-0.00646
1096.58;  134.950;  134.540; 1217.440; 0.00208; 0.00019
1097.13;  -23.450;  -25.860; 1182.740; 0.01239; 0.00114
1097.67;   69.150;   49.940; 1204.340; 0.10050; 0.00922
1098.21;  -14.050;  -16.960; 1162.040; 0.01541; 0.00141
1098.76;   -3.950;   -2.160; 1142.840;-0.00962;-0.00088
1099.30;   -4.550;  -14.060; 1130.140; 0.05162; 0.00474
1099.84;  -16.950;  -25.760; 1116.240; 0.04863; 0.00447
1100.38;   28.250;   25.840; 1094.240; 0.01347; 0.00124

