
Integration time [ms]: 500.000
Averaging Nr. [scans]: 10
Smoothing Nr. [pixels]: 0
Data measured with spectrometer [name]: 1901096U1
Wave   ;Sample   ;Dark     ;Reference;Absolute Irradiance  ;Photon Counts
[nm]   ;[counts] ;[counts] ;[counts] ;[µWatt/cm?/nm]       ;[µMol/s/m?/nm]

 155.82;  219.352;  220.336;   69.357; 0.00000; 0.00000
 156.42;  242.666;  239.240;   98.706; 0.00000; 0.00000
 157.03;  242.567;  223.041;   92.018; 0.00000; 0.00000
 157.63;  222.264;  212.140;   78.786; 0.00000; 0.00000
 158.23;  241.763;  215.440;   94.680; 0.00000; 0.00000
 158.84;  267.972;  233.042;  119.574; 0.00000; 0.00000
 159.44;  226.560;  229.939;   82.550; 0.00000; 0.00000
 160.04;  255.657;  233.638;  102.110; 0.00000; 0.00000
 160.64;  300.160;  291.439;   93.044; 0.00000; 0.00000
 161.25;  257.967;  242.041;  112.923; 0.00000; 0.00000
 161.85;  266.863;  250.139;  109.378; 0.00000; 0.00000
 162.45;  236.656;  214.738;   90.607; 0.00000; 0.00000
 163.06;  273.760;  268.439;   94.943; 0.00000; 0.00000
 163.66;  271.670;  254.041;   96.745; 0.00000; 0.00000
 164.26;  230.848;  228.235;   70.019; 0.00000; 0.00000
 164.86;  228.050;  223.836;  112.245; 0.00000; 0.00000
 165.47;  261.038;  222.006;  144.771; 0.00000; 0.00000
 166.07;  239.433;  227.405;  171.417; 0.00000; 0.00000
 166.67;  247.830;  221.004;  157.886; 0.00000; 0.00000
 167.27;  256.336;  227.505;  165.443; 0.00000; 0.00000
 167.88;  256.030;  243.204;  176.084; 0.00000; 0.00000
 168.48;  299.924;  270.602;  149.416; 0.00000; 0.00000
 169.08;  276.328;  255.003;  149.165; 0.00000; 0.00000
 169.68;  271.344;  266.507;  196.226; 0.00000; 0.00000
 170.29;  312.024;  279.502;  174.114; 0.00000; 0.00000
 170.89;  275.430;  246.104;  182.177; 0.00000; 0.00000
 171.49;  286.229;  267.103;  158.870; 0.00000; 0.00000
 172.09;  264.531;  243.304;  197.793; 0.00000; 0.00000
 172.70;  275.417;  241.700;  178.950; 0.00000; 0.00000
 173.30;  334.223;  312.302;  192.313; 0.00000; 0.00000
 173.90;  236.912;  227.899;  149.290; 0.00000; 0.00000
 174.50;  400.317;  342.200;  169.250; 0.00000; 0.00000
 175.11;  338.122;  290.801;  178.397; 0.00000; 0.00000
 175.71;  234.234;  202.005;  163.326; 0.00000; 0.00000
 176.31;  234.932;  201.904;  157.407; 0.00000; 0.00000
 176.91;  241.720;  218.401;  166.476; 0.00000; 0.00000
 177.51;  250.516;  227.000;  169.037; 0.00000; 0.00000
 178.12;  316.219;  302.301;  189.172; 0.00000; 0.00000
 178.72;  295.828;  269.103;  188.859; 0.00000; 0.00000
 179.32;  303.621;  283.101;  182.185; 0.00000; 0.00000
 179.92;  233.020;  227.101;  182.480; 0.00000; 0.00000
 180.52;  404.434;  333.605;  194.824; 0.00000; 0.00000
 181.13;  277.112;  252.699;  169.191; 0.00000; 0.00000
 181.73;  248.225;  213.902;  204.825; 0.00000; 0.00000
 182.33;  269.112;  243.799;  191.492; 0.00000; 0.00000
 182.93;  259.215;  233.800;  210.121; 0.00000; 0.00000
 183.54;  214.405;  182.997;  146.515; 0.00000; 0.00000
 184.14;  228.225;  204.202;  159.832; 0.00000; 0.00000
 184.74;  334.425;  274.302;  211.228; 0.00000; 0.00000
 185.34;  250.635;  224.105;  232.734; 0.10846; 0.00168
 185.94;  288.513;  259.299;  205.003; 0.14455; 0.00225
 186.54;  255.727;  238.903;  234.146; 0.07544; 0.00118
 187.15;  229.720;  203.901;  218.473; 0.12441; 0.00195
 187.75;  351.438;  294.206;  238.667; 0.17260; 0.00271
 188.35;  322.613;  278.399;  236.604; 0.17387; 0.00274
 188.95;  226.230;  208.004;  223.885; 0.05972; 0.00094
 189.55;  212.116;  171.400;  204.335; 0.15479; 0.00245
 190.16;  292.718;  253.900;  250.453; 0.14996; 0.00238
 190.76;  227.210;  196.298;  231.976; 0.10987; 0.00175
 191.36;  283.813;  260.299;  258.608; 0.08106; 0.00130
 191.96;  237.425;  216.002;  282.334; 0.05777; 0.00093
 192.56;  226.214;  216.599;  277.413; 0.02730; 0.00044
 193.16;  256.910;  222.298;  299.568; 0.10663; 0.00172
 193.77;  320.700;  280.796;  305.671; 0.14493; 0.00235
 194.37;  225.821;  198.501;  293.691; 0.07189; 0.00117
 194.97;  204.314;  197.299;  303.214; 0.01800; 0.00029
 195.57;  212.830;  200.904;  323.385; 0.02240; 0.00037
 196.17;  276.199;  239.195;  329.855; 0.13585; 0.00223
 196.77;  215.315;  201.800;  362.624; 0.03304; 0.00054
 197.38;  220.414;  209.299;  385.309; 0.02603; 0.00043
 197.98;  287.305;  255.797;  391.422; 0.08510; 0.00141
 198.58;  235.325;  235.002;  441.930; 0.00066; 0.00001
 199.18;  212.022;  185.202;  429.902; 0.05392; 0.00090
 199.78;  353.400;  269.496;  456.870; 0.28871; 0.00482
 200.38;  244.417;  239.300;  499.846; 0.01075; 0.00018
 200.98;  190.821;  178.001;  502.986; 0.02258; 0.00038
 201.59;  256.246;  215.408;  611.653; 0.05212; 0.00088
 202.19;  218.836;  224.805;  605.646;-0.00863;-0.00015
 202.79;  211.417;  197.500;  587.448; 0.02711; 0.00046
 203.39;  188.821;  161.601;  644.186; 0.05115; 0.00087
 203.99;  255.927;  222.003;  740.949; 0.05182; 0.00088
 204.59;  227.823;  222.002;  733.510; 0.00971; 0.00017
 205.19;  234.212;  216.999;  796.291; 0.03926; 0.00067
 205.79;  243.924;  207.602;  825.824; 0.06000; 0.00103
 206.40;  210.022;  198.301;  875.395; 0.01989; 0.00034
 207.00;  249.626;  228.303;  907.041; 0.03359; 0.00058
 207.60;  214.722;  190.601;  928.798; 0.03963; 0.00069
 208.20;  216.337;  203.105; 1019.353; 0.01680; 0.00029
 208.80;  200.439;  193.206; 1029.973; 0.00905; 0.00016
 209.40;  209.349;  199.209; 1141.880; 0.01070; 0.00019
 210.00;  208.924;  202.402; 1124.417; 0.00928; 0.00016
 210.60;  222.929;  201.703; 1170.175; 0.02721; 0.00048
 211.20;  311.228;  273.303; 1254.557; 0.04889; 0.00086
 211.81;  179.527;  153.303; 1237.652; 0.03347; 0.00059
 212.41;  207.943;  190.407; 1355.714; 0.01714; 0.00030
 213.01;  221.252;  189.210; 1400.416; 0.02635; 0.00047
 213.61;  203.234;  172.005; 1399.523; 0.03196; 0.00057
 214.21;  192.339;  181.706; 1517.477; 0.00978; 0.00018
 214.81;  195.945;  185.208; 1599.136; 0.00880; 0.00016
 215.41;  248.938;  224.406; 1677.966; 0.02323; 0.00042
 216.01;  281.937;  255.406; 1747.260; 0.02347; 0.00042
 216.61;  249.113;  220.499; 1794.906; 0.03880; 0.00070
 217.21;  239.849;  218.909; 1900.484; 0.01439; 0.00026
 217.81;  193.554;  167.410; 1966.536; 0.01532; 0.00028
 218.41;  213.547;  187.108; 2070.058; 0.01763; 0.00032
 219.02;  188.955;  188.510; 2134.247; 0.00025; 0.00000
 219.62;  231.341;  209.407; 2229.697; 0.01452; 0.00027
 220.22;  243.141;  200.407; 2296.000; 0.02622; 0.00048
 220.82;  190.550;  178.909; 2396.090; 0.00599; 0.00011
 221.42;  216.652;  197.310; 2534.516; 0.00912; 0.00017
 222.02;  186.748;  170.809; 2602.876; 0.00753; 0.00014
 222.62;  170.348;  160.508; 2644.667; 0.00459; 0.00009
 223.22;  206.347;  179.408; 2747.058; 0.01387; 0.00026
 223.82;  203.047;  180.408; 2851.961; 0.01085; 0.00020
 224.42;  231.245;  216.608; 2979.536; 0.00651; 0.00012
 225.02;  203.347;  189.208; 3070.857; 0.00578; 0.00011
 225.62;  203.561;  170.212; 3154.212; 0.01086; 0.00020
 226.22;  233.352;  190.210; 3251.918; 0.01613; 0.00030
 226.82;  224.449;  178.409; 3374.683; 0.01894; 0.00036
 227.42;  203.134;  191.205; 3459.925; 0.00608; 0.00012
 228.02;  219.036;  208.305; 3557.146; 0.00481; 0.00009
 228.62;  165.454;  137.910; 3720.333; 0.00989; 0.00019
 229.22;  273.957;  235.611; 3822.360; 0.01201; 0.00023
 229.82;  193.123;  177.202; 3910.707; 0.00922; 0.00018
 230.43;  207.251;  202.209; 4060.498; 0.00166; 0.00003
 231.03;  220.137;  170.305; 4165.853; 0.01971; 0.00038
 231.63;  196.135;  166.305; 4299.932; 0.01170; 0.00023
 232.23;  189.440;  184.506; 4439.690; 0.00177; 0.00003
 232.83;  184.743;  186.107; 4570.914;-0.00045;-0.00001
 233.43;  236.344;  198.208; 4679.232; 0.01193; 0.00023
 234.03;  195.545;  174.508; 4822.739; 0.00601; 0.00012
 234.63;  155.853;  146.210; 4963.625; 0.00239; 0.00005
 235.23;  221.551;  189.309; 5087.302; 0.00801; 0.00016
 235.83;  175.739;  175.706; 5158.578; 0.00001; 0.00000
 236.43;  228.628;  189.403; 5238.061; 0.01348; 0.00027
 237.03;  202.838;  175.506; 5367.267; 0.00788; 0.00016
 237.63;  317.042;  255.007; 5476.106; 0.01574; 0.00031
 238.23;  185.351;  178.109; 5557.100; 0.00159; 0.00003
 238.83;  194.251;  163.509; 5587.205; 0.00689; 0.00014
 239.43;  204.235;  173.305; 5669.235; 0.00866; 0.00017
 240.03;  222.249;  188.909; 5684.486; 0.00770; 0.00015
 240.63;  183.761;  169.912; 5805.009; 0.00252; 0.00005
 241.23;  232.041;  210.407; 5803.599; 0.00523; 0.00011
 241.83;  193.949;  170.609; 5757.283; 0.00512; 0.00010
 242.43;  199.143;  188.907; 5830.420; 0.00254; 0.00005
 243.03;  187.250;  175.209; 5665.396; 0.00238; 0.00005
 243.63;  180.145;  161.208; 5769.037; 0.00389; 0.00008
 244.23;  179.934;  154.805; 5796.819; 0.00723; 0.00015
 244.83;  160.146;  150.808; 5806.754; 0.00199; 0.00004
 245.43;  194.532;  189.204; 5823.208; 0.00135; 0.00003
 246.02;  412.940;  345.506; 5800.188; 0.01505; 0.00031
 246.62;  195.734;  176.605; 5811.522; 0.00520; 0.00011
 247.22;  170.254;  152.710; 5818.533; 0.00320; 0.00007
 247.82;  206.652;  205.209; 5941.708; 0.00026; 0.00001
 248.42;  320.943;  264.607; 5924.620; 0.01150; 0.00024
 249.02;  215.347;  199.908; 5931.763; 0.00295; 0.00006
 249.62;  171.957;  169.111; 5978.860; 0.00047; 0.00001
 250.22;  262.253;  228.510; 6035.626; 0.00582; 0.00012
 250.82;  233.445;  196.608; 6063.934; 0.00726; 0.00015
 251.42;  212.459;  197.211; 6166.982; 0.00231; 0.00005
 252.02;  164.544;  148.708; 6146.432; 0.00293; 0.00006
 252.62;  185.966;  173.413; 6316.257; 0.00166; 0.00004
 253.22;  255.841;  225.507; 6362.600; 0.00565; 0.00012
 253.82;  162.855;  144.310; 6451.444; 0.00315; 0.00007
 254.42;  182.349;  168.609; 6595.581; 0.00243; 0.00005
 255.02;  198.656;  184.211; 6709.758; 0.00194; 0.00004
 255.62;  169.154;  144.710; 6866.335; 0.00353; 0.00008
 256.22;  339.941;  273.107; 6997.500; 0.01220; 0.00026
 256.82;  186.940;  163.506; 7151.784; 0.00398; 0.00009
 257.41;  169.957;  158.811; 7263.866; 0.00145; 0.00003
 258.01;  195.447;  153.908; 7368.656; 0.00616; 0.00013
 258.61;  224.154;  207.910; 7537.434; 0.00205; 0.00004
 259.21;  169.543;  158.207; 7585.914; 0.00169; 0.00004
 259.81;  238.142;  197.507; 7627.906; 0.00614; 0.00013
 260.41;  336.843;  275.007; 7729.113; 0.00887; 0.00019
 261.01;  143.461;  136.212; 7804.604; 0.00078; 0.00002
 261.61;  190.759;  159.711; 7874.186; 0.00320; 0.00007
 262.21;  173.838;  159.106; 7809.864; 0.00208; 0.00005
 262.81;  150.241;  140.007; 7883.093; 0.00134; 0.00003
 263.41;  183.257;  151.011; 7851.264; 0.00341; 0.00008
 264.00;  456.460;  360.812; 7910.396; 0.00902; 0.00020
 264.60;  213.654;  178.010; 7832.833; 0.00364; 0.00008
 265.20;  174.851;  141.709; 7811.800; 0.00361; 0.00008
 265.80;  180.050;  170.309; 7807.390; 0.00099; 0.00002
 266.40;  205.540;  171.206; 7758.985; 0.00431; 0.00010
 267.00;  240.849;  211.909; 7744.586; 0.00303; 0.00007
 267.60;  225.355;  181.510; 7713.844; 0.00392; 0.00009
 268.20;  224.354;  192.610; 7658.534; 0.00261; 0.00006
 268.80;  142.253;  134.910; 7613.828; 0.00061; 0.00001
 269.39;  234.131;  199.004; 7639.694; 0.00408; 0.00009
 269.99;  167.446;  151.208; 7545.848; 0.00137; 0.00003
 270.59;  182.949;  168.409; 7557.185; 0.00117; 0.00003
 271.19;  161.046;  153.308; 7463.747; 0.00059; 0.00001
 271.79;  205.943;  175.907; 7430.716; 0.00219; 0.00005
 272.39;  172.943;  163.307; 7390.417; 0.00063; 0.00001
 272.99;  171.832;  150.304; 7366.798; 0.00161; 0.00004
 273.59;  159.629;  146.003; 7394.867; 0.00097; 0.00002
 274.18;  181.034;  171.305; 7372.027; 0.00058; 0.00001
 274.78;  174.927;  165.703; 7463.749; 0.00056; 0.00001
 275.38;  473.909;  361.998; 7541.064; 0.00779; 0.00018
 275.98;  178.698;  158.695; 7555.049; 0.00135; 0.00003
 276.58;  189.590;  172.593; 7679.967; 0.00114; 0.00003
 277.18;  178.502;  140.996; 7761.887; 0.00181; 0.00004
 277.78;  202.684;  168.891; 7885.197; 0.00181; 0.00004
 278.37;  159.466;  144.387; 8094.415; 0.00079; 0.00002
 278.97;  190.278;  161.590; 8236.837; 0.00112; 0.00003
 279.57;  179.156;  162.284; 8401.201; 0.00069; 0.00002
 280.17;  167.053;  139.283; 8585.075; 0.00105; 0.00002
 280.77;  190.145;  170.081; 8739.990; 0.00075; 0.00002
 281.37;  192.243;  178.680; 8921.174; 0.00048; 0.00001
 281.96;  194.014;  174.472; 9108.466; 0.00079; 0.00002
 282.56;  198.224;  173.175; 9270.274; 0.00086; 0.00002
 283.16;  207.509;  179.071; 9355.810; 0.00107; 0.00003
 283.76;  174.108;  139.371; 9505.805; 0.00115; 0.00003
 284.36;  343.495;  274.567; 9628.166; 0.00249; 0.00006
 284.95;  166.871;  159.561; 9802.511; 0.00032; 0.00001
 285.55;  201.185;  171.965; 9973.057; 0.00108; 0.00003
 286.15;  197.395;  174.867;10153.664; 0.00074; 0.00002
 286.75;  230.667;  205.160;10252.877; 0.00108; 0.00003
 287.35;  186.274;  142.062;10345.749; 0.00175; 0.00004
 287.94;  151.283;  117.664;10437.340; 0.00127; 0.00003
 288.54;  171.880;  144.863;10563.308; 0.00107; 0.00003
 289.14;  154.679;  139.663;10625.296; 0.00064; 0.00002
 289.74;  169.283;  148.364;10698.339; 0.00092; 0.00002
 290.34;  170.207;  159.671;10794.693; 0.00037; 0.00001
 290.93;  172.399;  143.468;10889.406; 0.00117; 0.00003
 291.53;  163.505;  151.470;10882.075; 0.00047; 0.00001
 292.13;  155.601;  135.669;10986.727; 0.00083; 0.00002
 292.73;  220.889;  170.066;10956.902; 0.00252; 0.00006
 293.33;  144.609;  120.771;10919.612; 0.00102; 0.00002
 293.92;  165.315;  140.573;10969.773; 0.00105; 0.00003
 294.52;  142.720;  127.074;10992.032; 0.00064; 0.00002
 295.12;  168.415;  145.273;10934.672; 0.00104; 0.00003
 295.72;  166.113;  125.172;10815.554; 0.00194; 0.00005
 296.31;  216.129;  188.876;10904.618; 0.00116; 0.00003
 296.91;  225.507;  192.771;10752.392; 0.00175; 0.00004
 297.51;  196.123;  161.875;10565.563; 0.00155; 0.00004
 298.11;  427.024;  338.175;10514.872; 0.00376; 0.00009
 298.70;  172.912;  142.872;10425.745; 0.00136; 0.00003
 299.30;  135.073;  120.561;10340.539; 0.00085; 0.00002
 299.90;  168.760;  166.258;10399.297; 0.00014; 0.00000
 300.50;  233.683;  191.364;10320.936; 0.00214; 0.00005
 301.09;  151.681;  125.663;10404.916; 0.00160; 0.00004
 301.69;  176.597;  145.168;10530.383; 0.00164; 0.00004
 302.29;  162.183;  130.664;10625.238; 0.00202; 0.00005
 302.89;  161.988;  132.366;10712.996; 0.00188; 0.00005
 303.48;  189.477;  196.462;10883.577;-0.00055;-0.00001
 304.08;  159.707;  143.871;11034.496; 0.00122; 0.00003
 304.68;  183.392;  148.966;11199.933; 0.00325; 0.00008
 305.28;  166.392;  157.467;11331.138; 0.00090; 0.00002
 305.87;  152.709;  121.071;11557.216; 0.00279; 0.00007
 306.47;  160.099;  118.968;11629.007; 0.00400; 0.00010
 307.07;  197.312;  157.372;11817.946; 0.00351; 0.00009
 307.67;  211.225;  156.475;12043.183; 0.00447; 0.00012
 308.26;  156.214;  143.772;12135.263; 0.00111; 0.00003
 308.86;  195.186;  167.665;12308.970; 0.00297; 0.00008
 309.46;  164.013;  137.072;12516.957; 0.00239; 0.00006
 310.05;  156.695;  141.167;12737.271; 0.00162; 0.00004
 310.65;  188.833;  158.578;12857.363; 0.00252; 0.00007
 311.25;  218.508;  160.371;12935.298; 0.00549; 0.00014
 311.85;  200.398;  156.568;13145.596; 0.00453; 0.00012
 312.44;  166.399;  149.168;13347.612; 0.00171; 0.00004
 313.04;  169.609;  136.371;13485.708; 0.00313; 0.00008
 313.64;  168.196;  149.968;13620.981; 0.00195; 0.00005
 314.23;  214.806;  160.970;13715.076; 0.00522; 0.00014
 314.83;  482.001;  384.969;13936.025; 0.01016; 0.00027
 315.43;  156.488;  127.165;13967.090; 0.00328; 0.00009
 316.02;  189.120;  176.974;14040.930; 0.00110; 0.00003
 316.62;  179.104;  147.370;14125.363; 0.00314; 0.00008
 317.22;  192.111;  160.472;14245.032; 0.00298; 0.00008
 317.81;  149.214;  137.272;14233.762; 0.00114; 0.00003
 318.41;  182.717;  144.273;14263.897; 0.00359; 0.00010
 319.01;  170.198;  140.268;14427.401; 0.00305; 0.00008
 319.60;  193.303;  175.869;14388.747; 0.00169; 0.00005
 320.20;  152.307;  124.570;14258.389; 0.00274; 0.00007
 320.80;  175.102;  149.269;14334.539; 0.00266; 0.00007
 321.39;  169.103;  149.269;14417.251; 0.00203; 0.00005
 321.99;  165.300;  145.369;14396.221; 0.00209; 0.00006
 322.59;  244.814;  198.472;14327.565; 0.00447; 0.00012
 323.18;  180.511;  138.872;14288.034; 0.00418; 0.00011
 323.78;  195.820;  156.574;14312.623; 0.00363; 0.00010
 324.38;  156.104;  136.770;14236.162; 0.00197; 0.00005
 324.97;  148.717;  131.673;14253.394; 0.00162; 0.00004
 325.57;  183.204;  153.870;14167.559; 0.00301; 0.00008
 326.17;  208.722;  164.075;14160.352; 0.00414; 0.00011
 326.76;  191.608;  151.871;14123.806; 0.00398; 0.00011
 327.36;  200.813;  170.672;14073.860; 0.00280; 0.00008
 327.95;  163.220;  126.274;13930.123; 0.00321; 0.00009
 328.55;  152.519;  132.874;13852.519; 0.00169; 0.00005
 329.15;  413.299;  326.868;13731.407; 0.00811; 0.00022
 329.74;  149.534;  131.678;13598.370; 0.00142; 0.00004
 330.34;  168.626;  151.176;13577.890; 0.00134; 0.00004
 330.94;  200.893;  163.167;13380.550; 0.00334; 0.00009
 331.53;  166.999;  144.968;13220.110; 0.00186; 0.00005
 332.13;  139.920;  114.274;13089.027; 0.00214; 0.00006
 332.72;  307.519;  237.274;12940.220; 0.00615; 0.00017
 333.32;  168.028;  140.176;12869.816; 0.00245; 0.00007
 333.92;  139.534;  123.678;12706.579; 0.00131; 0.00004
 334.51;  136.031;  121.477;12609.342; 0.00126; 0.00004
 335.11;  207.427;  147.876;12467.899; 0.00526; 0.00015
 335.70;  154.740;  132.879;12368.236; 0.00175; 0.00005
 336.30;  213.063;  174.086;12332.478; 0.00282; 0.00008
 336.90;  200.144;  153.880;12252.377; 0.00353; 0.00010
 337.49;  146.942;  121.780;12294.456; 0.00186; 0.00005
 338.09;  200.642;  150.080;12364.864; 0.00366; 0.00010
 338.68;  230.464;  159.586;12237.490; 0.00458; 0.00013
 339.28;  187.661;  133.585;12302.356; 0.00352; 0.00010
 339.88;  209.169;  153.887;12390.342; 0.00352; 0.00010
 340.47;  236.464;  177.686;12416.990; 0.00380; 0.00011
 341.07;  225.563;  169.486;12531.981; 0.00356; 0.00010
 341.66;  170.770;  109.888;12623.655; 0.00371; 0.00011
 342.26;  209.360;  132.885;12797.052; 0.00476; 0.00014
 342.85;  213.566;  148.086;12937.109; 0.00377; 0.00011
 343.45;  205.385;  127.392;12984.911; 0.00417; 0.00012
 344.05;  273.449;  157.382;13082.432; 0.00629; 0.00018
 344.64;  279.102;  156.969;13194.041; 0.00621; 0.00018
 345.24;  262.614;  119.945;13265.813; 0.00706; 0.00020
 345.83;  313.457;  163.730;13312.418; 0.00747; 0.00022
 346.43;  306.100;  115.042;13468.470; 0.00807; 0.00023
 347.02;  405.710;  183.844;13572.576; 0.00913; 0.00026
 347.62;  340.228;   84.249;13379.367; 0.01015; 0.00029
 348.21;  450.115;  151.546;13533.522; 0.01191; 0.00035
 348.81;  543.317;  181.646;13381.845; 0.01394; 0.00041
 349.41;  586.533;  148.051;13369.417; 0.01663; 0.00049
 350.00;  621.827;  126.049;13470.448; 0.01949; 0.00057
 350.60;  703.522;  126.948;13588.306; 0.02269; 0.00066
 351.19;  844.320;  152.847;13759.078; 0.02649; 0.00078
 351.79;  930.229;  173.150;13840.276; 0.02670; 0.00079
 352.38; 1006.233;  111.051;13938.916; 0.03014; 0.00089
 352.98; 1170.997;  141.641;13979.839; 0.03558; 0.00105
 353.57; 1325.473;  135.134;14008.884; 0.03963; 0.00117
 354.17; 1409.579;  100.336;14067.448; 0.04106; 0.00122
 354.76; 1646.053;  155.229;14095.882; 0.04549; 0.00135
 355.36; 1700.923;  135.021;14156.360; 0.04703; 0.00140
 355.95; 1838.782;   93.010;14214.335; 0.05097; 0.00152
 356.55; 1962.548;  103.101;14229.371; 0.05302; 0.00158
 357.14; 2074.609;  121.490;14325.365; 0.05323; 0.00159
 357.74; 2165.279;  132.882;14177.550; 0.05432; 0.00162
 358.33; 2195.828;  137.768;14059.315; 0.05440; 0.00163
 358.93; 2249.767;  136.352;13923.782; 0.05637; 0.00169
 359.52; 2251.235;  114.643;13798.344; 0.05461; 0.00164
 360.12; 2267.790;  116.631;13719.972; 0.05487; 0.00165
 360.71; 2229.588;  136.431;13707.554; 0.05208; 0.00157
 361.31; 2249.071;  157.026;13621.268; 0.05111; 0.00154
 361.90; 2378.049;  322.920;13507.738; 0.05077; 0.00154
 362.50; 2120.126;  143.914;13484.098; 0.05003; 0.00152
 363.09; 2061.734;  124.816;13341.582; 0.04946; 0.00150
 363.69; 2001.466;  123.025;13261.120; 0.04904; 0.00149
 364.28; 1975.709;  131.937;13269.773; 0.04899; 0.00149
 364.88; 2055.328;  189.041;13351.165; 0.05184; 0.00158
 365.47; 2023.468;  148.852;13342.885; 0.05083; 0.00155
 366.06; 1965.102;  123.162;13257.149; 0.05077; 0.00155
 366.66; 1972.718;  131.966;13117.317; 0.05175; 0.00159
 367.25; 1979.826;  149.468;13006.099; 0.05146; 0.00158
 367.85; 1912.347;  118.174;12998.112; 0.04895; 0.00150
 368.44; 2028.318;  195.066;12809.111; 0.05028; 0.00155
 369.04; 1943.889;  138.258;12658.104; 0.04991; 0.00154
 369.63; 1910.772;  155.053;12538.629; 0.04801; 0.00148
 370.23; 1854.752;  130.248;12507.819; 0.04770; 0.00148
 370.82; 1823.123;  127.040;12275.616; 0.04869; 0.00151
 371.41; 1747.339;  118.644;12167.683; 0.04693; 0.00146
 372.01; 1725.632;  140.643;12115.712; 0.04662; 0.00145
 372.60; 1616.246;  117.146;11975.456; 0.04530; 0.00141
 373.20; 1626.475;  174.654;12039.964; 0.04290; 0.00134
 373.79; 1492.302;  147.261;11941.740; 0.03878; 0.00121
 374.39; 1384.490;  135.358;11902.018; 0.03649; 0.00114
 374.98; 1290.089;  140.058;11792.806; 0.03368; 0.00106
 375.57; 1230.979;  132.655;11721.304; 0.03291; 0.00103
 376.17; 1168.065;  148.552;11796.660; 0.03077; 0.00097
 376.76; 1076.379;  126.855;11721.704; 0.02877; 0.00091
 377.36;  978.282;  108.556;11727.335; 0.02641; 0.00083
 377.95;  907.889;  123.558;11721.412; 0.02349; 0.00074
 378.55;  853.289;  127.358;11711.712; 0.02190; 0.00069
 379.14;  811.910;  124.964;11709.428; 0.02052; 0.00065
 379.73;  719.665;  107.651;11636.354; 0.01897; 0.00060
 380.33;  700.480;  127.356;11703.912; 0.01743; 0.00055
 380.92;  697.773;  140.554;11668.144; 0.01713; 0.00055
 381.51;  650.595;  150.860;11686.070; 0.01514; 0.00048
 382.11;  553.293;  107.159;11643.046; 0.01357; 0.00043
 382.70;  582.275;  150.654;11603.363; 0.01334; 0.00043
 383.30;  521.283;  131.356;11590.348; 0.01194; 0.00038
 383.89;  516.672;  148.153;11709.427; 0.01127; 0.00036
 384.48;  442.369;  116.153;11665.995; 0.00998; 0.00032
 385.08;  450.874;  135.354;11854.352; 0.00961; 0.00031
 385.67;  407.281;  111.656;11824.527; 0.00881; 0.00028
 386.27;  398.682;  119.756;11982.236; 0.00830; 0.00027
 386.86;  378.369;  118.553;12038.498; 0.00779; 0.00025
 387.45;  363.579;  105.955;12123.205; 0.00759; 0.00025
 388.05;  403.787;  157.557;12277.087; 0.00713; 0.00023
 388.64;  397.692;  161.559;12483.044; 0.00682; 0.00022
 389.23;  349.586;  148.357;12506.880; 0.00575; 0.00019
 389.83;  292.474;  119.954;12733.854; 0.00492; 0.00016
 390.42;  330.878;  151.455;13005.489; 0.00502; 0.00016
 391.01;  285.402;  118.762;13122.046; 0.00458; 0.00015
 391.61;  278.076;  112.254;13136.770; 0.00458; 0.00015
 392.20;  277.574;  129.354;13389.848; 0.00405; 0.00013
 392.79;  260.580;  110.456;13482.314; 0.00404; 0.00013
 393.39;  328.173;  176.754;13714.141; 0.00404; 0.00013
 393.98;  221.486;   96.957;13887.473; 0.00328; 0.00011
 394.57;  272.257;  144.349;14119.877; 0.00337; 0.00011
 395.17;  306.590;  181.358;14342.017; 0.00321; 0.00011
 395.76;  282.666;  157.252;14398.170; 0.00324; 0.00011
 396.35;  235.685;  121.657;14723.368; 0.00288; 0.00010
 396.95;  260.182;  153.556;14851.736; 0.00267; 0.00009
 397.54;  255.484;  129.257;15011.260; 0.00312; 0.00010
 398.13;  341.791;  210.558;15237.327; 0.00321; 0.00011
 398.73;  245.188;  137.058;15364.602; 0.00260; 0.00009
 399.32;  222.267;  116.952;15491.473; 0.00253; 0.00008
 399.91;  210.684;  120.357;15600.753; 0.00214; 0.00007
 400.50;  240.477;  142.255;15697.381; 0.00232; 0.00008
 401.10;  226.293;  151.159;15828.054; 0.00175; 0.00006
 401.69;  205.684;  127.157;15854.460; 0.00182; 0.00006
 402.28;  210.786;  132.357;15897.175; 0.00180; 0.00006
 402.88;  216.886;  140.157;15970.475; 0.00175; 0.00006
 403.47;  210.187;  117.857;16008.786; 0.00211; 0.00007
 404.06;  242.383;  152.956;16056.750; 0.00203; 0.00007
 404.66;  208.585;  146.857;16006.671; 0.00140; 0.00005
 405.25;  226.669;  155.853;16161.003; 0.00160; 0.00005
 405.84;  201.598;  134.860;16197.799; 0.00149; 0.00005
 406.43;  185.889;  110.258;16343.805; 0.00169; 0.00006
 407.03;  246.092;  159.759;16413.145; 0.00191; 0.00007
 407.62;  194.259;  114.250;16282.092; 0.00179; 0.00006
 408.21;  293.588;  202.758;16281.894; 0.00203; 0.00007
 408.80;  165.977;  111.055;16313.383; 0.00122; 0.00004
 409.40;  184.994;  111.459;16243.061; 0.00163; 0.00006
 409.99;  220.786;  148.957;16360.174; 0.00159; 0.00005
 410.58;  158.404;   97.362;16266.062; 0.00135; 0.00005
 411.17;  175.900;  109.861;16281.023; 0.00146; 0.00005
 411.77;  198.582;  151.656;16300.337; 0.00104; 0.00004
 412.36;  178.391;  108.458;16211.225; 0.00156; 0.00005
 412.95;  161.104;  117.362;16312.261; 0.00097; 0.00003
 413.54;  184.508;  127.563;16200.710; 0.00126; 0.00004
 414.14;  195.806;  135.163;16218.084; 0.00135; 0.00005
 414.73;  153.395;   94.360;15995.170; 0.00133; 0.00005
 415.32;  172.104;  111.262;16069.668; 0.00137; 0.00005
 415.91;  152.019;  109.366;15987.828; 0.00096; 0.00003
 416.50;  162.113;   95.064;15943.356; 0.00152; 0.00005
 417.10;  168.402;  111.162;15912.947; 0.00131; 0.00005
 417.69;  251.509;  183.263;15903.020; 0.00157; 0.00005
 418.28;  201.709;  141.563;15902.022; 0.00138; 0.00005
 418.87;  190.418;  148.466;15922.014; 0.00097; 0.00003
 419.47;  196.911;  126.764;15950.140; 0.00163; 0.00006
 420.06;  228.234;  168.670;15879.978; 0.00138; 0.00005
 420.65;  210.512;  155.164;15894.348; 0.00130; 0.00005
 421.24;  187.531;  120.869;15789.352; 0.00157; 0.00006
 421.83;  168.728;  107.869;15610.418; 0.00145; 0.00005
 422.43;  159.926;  123.968;15405.994; 0.00087; 0.00003
 423.02;  193.414;  152.165;15476.169; 0.00100; 0.00004
 423.61;  229.649;  162.074;15425.441; 0.00164; 0.00006
 424.20;  162.941;  134.772;15117.051; 0.00069; 0.00002
 424.79;  207.651;  145.875;15050.664; 0.00152; 0.00005
 425.38;  151.037;  120.671;14884.408; 0.00076; 0.00003
 425.98;  149.235;  106.470;14787.487; 0.00107; 0.00004
 426.57;  259.754;  185.876;14780.592; 0.00186; 0.00007
 427.16;  284.659;  196.677;14687.646; 0.00223; 0.00008
 427.75;  154.348;  113.374;14634.427; 0.00106; 0.00004
 428.34;  135.456;  105.476;14516.915; 0.00078; 0.00003
 428.93;  189.677;  143.182;14525.937; 0.00120; 0.00004
 429.53;  192.793;  147.486;14399.900; 0.00118; 0.00004
 430.12;  171.576;  111.081;14222.417; 0.00160; 0.00006
 430.71;  134.168;  102.079;14024.941; 0.00086; 0.00003
 431.30;  233.254;  177.075;14018.987; 0.00151; 0.00005
 431.89;  197.673;  139.481;13882.793; 0.00157; 0.00006
 432.48;  208.491;  167.685;13707.379; 0.00111; 0.00004
 433.08;  167.177;  125.282;13447.029; 0.00116; 0.00004
 433.67;  164.387;  134.684;13403.231; 0.00082; 0.00003
 434.26;  175.093;  132.886;13265.896; 0.00117; 0.00004
 434.85;  199.599;  150.987;13088.457; 0.00136; 0.00005
 435.44;  195.909;  135.390;12961.570; 0.00170; 0.00006
 436.03;  182.816;  156.292;12988.141; 0.00075; 0.00003
 436.62;  327.393;  249.186;12866.499; 0.00221; 0.00008
 437.21;  172.115;  142.792;12843.026; 0.00083; 0.00003
 437.81;  219.319;  161.293;12774.470; 0.00165; 0.00006
 438.40;  205.508;  162.390;12805.753; 0.00122; 0.00004
 438.99;  216.428;  144.495;12760.762; 0.00205; 0.00008
 439.58;  152.621;  124.993;12757.487; 0.00079; 0.00003
 440.17;  147.728;  132.595;12745.864; 0.00043; 0.00002
 440.76;  185.020;  158.293;12749.184; 0.00077; 0.00003
 441.35;  148.434;  113.797;12701.024; 0.00099; 0.00004
 441.94;  182.319;  149.493;12804.873; 0.00094; 0.00003
 442.53;  138.922;   95.694;12713.802; 0.00124; 0.00005
 443.12;  193.633;  145.797;12880.022; 0.00136; 0.00005
 443.72;  141.440;  105.499;12883.889; 0.00102; 0.00004
 444.31;  152.253;  119.602;12914.632; 0.00093; 0.00003
 444.90;  234.235;  177.597;13017.940; 0.00161; 0.00006
 445.49;  137.841;  114.599;12977.005; 0.00066; 0.00002
 446.08;  181.037;  132.398;13065.358; 0.00137; 0.00005
 446.67;  194.032;  141.996;13047.204; 0.00148; 0.00006
 447.26;  144.181;  108.810;13128.922; 0.00099; 0.00004
 447.85;  131.357;  103.903;13136.170; 0.00077; 0.00003
 448.44;  136.673;   96.507;13156.836; 0.00112; 0.00004
 449.03;  136.448;  105.201;13212.075; 0.00087; 0.00003
 449.62;  144.535;   98.197;13212.835; 0.00129; 0.00005
 450.21;  173.574;  142.608;13232.144; 0.00085; 0.00003
 450.80;  183.457;  132.803;13210.071; 0.00139; 0.00005
 451.39;  136.459;  102.204;13280.288; 0.00093; 0.00004
 451.98;  155.081;  116.710;13361.025; 0.00103; 0.00004
 452.57;  139.276;  123.308;13352.967; 0.00043; 0.00002
 453.17;  122.562;  103.805;13390.926; 0.00050; 0.00002
 453.76;  135.390;   98.212;13449.411; 0.00098; 0.00004
 454.35;  157.978;  119.209;13449.195; 0.00101; 0.00004
 454.94;  139.783;  113.110;13547.948; 0.00069; 0.00003
 455.53;  135.681;   98.810;13647.621; 0.00095; 0.00004
 456.12;  133.992;  110.013;13639.739; 0.00062; 0.00002
 456.71;  175.705;  143.616;13729.472; 0.00082; 0.00003
 457.30;  162.305;  109.316;13869.368; 0.00134; 0.00005
 457.89;  145.600;  122.815;13859.720; 0.00057; 0.00002
 458.48;   99.796;   86.714;13992.283; 0.00033; 0.00001
 459.07;  154.212;  133.618;14014.042; 0.00051; 0.00002
 459.66;  127.203;   94.616;14017.355; 0.00081; 0.00003
 460.25;  113.705;   91.816;14043.774; 0.00054; 0.00002
 460.84;  164.106;  115.516;14122.487; 0.00120; 0.00005
 461.43;  122.208;   92.917;14239.908; 0.00072; 0.00003
 462.02;  168.905;  135.216;14250.976; 0.00083; 0.00003
 462.61;  119.012;   90.918;14354.648; 0.00068; 0.00003
 463.20;  145.320;  108.920;14434.730; 0.00088; 0.00003
 463.79;  170.414;  127.419;14540.469; 0.00103; 0.00004
 464.38;  116.911;   82.818;14582.535; 0.00082; 0.00003
 464.97;  146.915;   96.319;14564.374; 0.00120; 0.00005
 465.56;  119.418;   86.920;14552.106; 0.00077; 0.00003
 466.15;  107.150;   89.628;14775.149; 0.00041; 0.00002
 466.74;  169.548;  115.128;14771.829; 0.00127; 0.00005
 467.32;  106.129;   63.923;14624.322; 0.00099; 0.00004
 467.91;  156.033;  112.124;14685.370; 0.00102; 0.00004
 468.50;  120.134;   76.624;14662.474; 0.00101; 0.00004
 469.09;  137.844;  101.027;14603.087; 0.00085; 0.00003
 469.68;  202.729;  168.922;14576.221; 0.00078; 0.00003
 470.27;  167.251;  125.529;14710.860; 0.00095; 0.00004
 470.86;  130.864;   94.832;14779.790; 0.00082; 0.00003
 471.45;  130.553;   98.329;14796.673; 0.00073; 0.00003
 472.04;  108.952;   75.729;14893.567; 0.00076; 0.00003
 472.63;  272.459;  199.831;14949.444; 0.00165; 0.00007
 473.22;  159.376;  104.735;15081.421; 0.00124; 0.00005
 473.81;  123.575;   83.335;15204.309; 0.00091; 0.00004
 474.40;  170.069;  139.133;15323.040; 0.00070; 0.00003
 474.99;  144.673;  108.034;15371.985; 0.00082; 0.00003
 475.58;  182.164;  144.432;15472.797; 0.00085; 0.00003
 476.17;  111.388;   77.639;15381.247; 0.00076; 0.00003
 476.76;  113.383;   72.837;15500.493; 0.00091; 0.00004
 477.34;  146.986;  108.738;15690.220; 0.00085; 0.00003
 477.93;  115.076;   82.435;15655.120; 0.00073; 0.00003
 478.52;  121.887;   77.138;15804.937; 0.00099; 0.00004
 479.11;  101.884;   67.038;15723.306; 0.00078; 0.00003
 479.70;  219.284;  150.437;15824.401; 0.00153; 0.00006
 480.29;   80.981;   35.837;15854.772; 0.00101; 0.00004
 480.88;  125.972;   83.734;15970.172; 0.00094; 0.00004
 481.47;  133.485;   93.738;16240.510; 0.00088; 0.00004
 482.06;  102.383;   82.137;16277.097; 0.00045; 0.00002
 482.64;  107.972;   76.234;16369.672; 0.00071; 0.00003
 483.23;  104.971;   66.934;16600.365; 0.00085; 0.00003
 483.82;  106.679;   65.236;16701.951; 0.00092; 0.00004
 484.41;  115.892;   83.640;16720.385; 0.00072; 0.00003
 485.00;   88.395;   68.640;16684.320; 0.00044; 0.00002
 485.59;  106.081;   84.837;16757.570; 0.00048; 0.00002
 486.18;  113.083;   67.837;16565.195; 0.00102; 0.00004
 486.77;  119.689;   99.239;16641.256; 0.00046; 0.00002
 487.35;  146.300;   97.942;16516.766; 0.00110; 0.00004
 487.94;  134.609;  103.544;16342.365; 0.00070; 0.00003
 488.53;  174.081;  120.337;16328.276; 0.00122; 0.00005
 489.12;  109.585;   78.338;16137.914; 0.00071; 0.00003
 489.71;  108.804;   73.043;16040.510; 0.00082; 0.00003
 490.30;  117.483;   75.137;15823.296; 0.00098; 0.00004
 490.89;   94.404;   77.243;15770.310; 0.00040; 0.00002
 491.47;  203.394;  141.540;15636.203; 0.00144; 0.00006
 492.06;  183.407;  121.544;15767.440; 0.00144; 0.00006
 492.65;   81.285;   73.638;15651.517; 0.00018; 0.00001
 493.24;  121.195;   85.340;15745.321; 0.00084; 0.00003
 493.83;  108.202;   73.942;15737.289; 0.00081; 0.00003
 494.42;   85.684;   53.138;15680.605; 0.00078; 0.00003
 495.00;  141.923;   93.948;15772.610; 0.00114; 0.00005
 495.59;  128.311;  101.745;15555.489; 0.00064; 0.00003
 496.18;   94.797;   75.841;15587.835; 0.00046; 0.00002
 496.77;   86.215;   55.746;15499.329; 0.00074; 0.00003
 497.36;  161.804;  108.643;15408.615; 0.00130; 0.00005
 497.94;  147.500;  116.542;15405.174; 0.00076; 0.00003
 498.53;   90.526;   70.649;15336.545; 0.00049; 0.00002
 499.12;   63.135;   49.051;15247.135; 0.00035; 0.00001
 499.71;  121.001;   84.842;15223.276; 0.00091; 0.00004
 500.30;  111.910;   74.944;15162.171; 0.00093; 0.00004
 500.88;  125.237;   97.752;15165.755; 0.00070; 0.00003
 501.47;   87.729;   77.949;15064.069; 0.00025; 0.00001
 502.06;  124.830;   85.650;15084.289; 0.00101; 0.00004
 502.65;  104.926;   71.749;15053.546; 0.00086; 0.00004
 503.23;  110.316;   67.646;14986.635; 0.00111; 0.00005
 503.82;  104.128;   67.349;15037.966; 0.00096; 0.00004
 504.41;   93.742;   53.153;14906.905; 0.00106; 0.00004
 505.00;  211.631;  155.250;14855.493; 0.00149; 0.00006
 505.58;  136.824;   96.648;14830.521; 0.00107; 0.00005
 506.17;  155.740;  114.252;14742.188; 0.00111; 0.00005
 506.76;  129.121;   81.647;14670.589; 0.00127; 0.00005
 507.35;  155.339;   99.352;14583.180; 0.00151; 0.00006
 507.93;  125.850;   76.655;14526.590; 0.00133; 0.00006
 508.52;   91.846;   63.054;14549.052; 0.00078; 0.00003
 509.11;  128.231;   70.950;14402.097; 0.00157; 0.00007
 509.70;  102.243;   60.253;14285.923; 0.00115; 0.00005
 510.28;  121.843;   96.753;14326.917; 0.00069; 0.00003
 510.87;  111.051;   68.556;14263.308; 0.00118; 0.00005
 511.46;  104.650;   63.355;14128.893; 0.00116; 0.00005
 512.05;  125.234;   53.451;14064.229; 0.00202; 0.00009
 512.63;  139.267;   85.560;14044.876; 0.00152; 0.00006
 513.22;  127.352;   60.356;13960.816; 0.00191; 0.00008
 513.81;  129.480;   74.763;13930.912; 0.00157; 0.00007
 514.40;  130.470;   56.561;13850.705; 0.00213; 0.00009
 514.98;  155.671;   91.761;13811.717; 0.00185; 0.00008
 515.57;  183.052;   98.256;13759.513; 0.00247; 0.00011
 516.16;  308.360;  194.558;13665.995; 0.00336; 0.00014
 516.74;  145.860;   61.158;13650.798; 0.00251; 0.00011
 517.33;  201.549;   93.655;13631.582; 0.00321; 0.00014
 517.92;  178.663;   77.059;13572.029; 0.00303; 0.00013
 518.50;  156.678;   50.163;13526.084; 0.00321; 0.00014
 519.09;  193.761;   76.358;13522.206; 0.00353; 0.00015
 519.68;  183.466;   63.860;13582.164; 0.00361; 0.00016
 520.26;  193.867;   61.960;13514.477; 0.00400; 0.00017
 520.85;  198.265;   67.859;13509.653; 0.00397; 0.00017
 521.44;  236.061;   83.258;13416.109; 0.00469; 0.00020
 522.02;  224.456;   48.057;13449.657; 0.00542; 0.00024
 522.61;  258.181;   54.064;13481.719; 0.00627; 0.00027
 523.20;  310.365;  102.759;13529.651; 0.00639; 0.00028
 523.78;  265.767;   36.860;13421.774; 0.00707; 0.00031
 524.37;  308.769;   81.160;13489.089; 0.00705; 0.00031
 524.96;  310.377;   53.963;13546.479; 0.00796; 0.00035
 525.54;  361.976;   79.662;13559.268; 0.00877; 0.00039
 526.13;  388.673;   86.061;13613.739; 0.00942; 0.00041
 526.72;  352.368;   36.160;13636.987; 0.00987; 0.00043
 527.30;  413.191;   79.866;13736.029; 0.01040; 0.00046
 527.89;  453.687;   87.665;13772.479; 0.01144; 0.00050
 528.48;  478.178;   67.963;13717.585; 0.01285; 0.00057
 529.06;  545.486;   96.665;13839.567; 0.01405; 0.00062
 529.65;  571.194;   87.867;13879.060; 0.01514; 0.00067
 530.23;  594.708;   90.871;13985.299; 0.01579; 0.00070
 530.82;  634.078;   92.763;14006.492; 0.01702; 0.00075
 531.41;  659.384;   82.864;13952.847; 0.01821; 0.00081
 531.99;  780.987;  128.365;14189.484; 0.02054; 0.00091
 532.58;  724.597;   53.068;14202.188; 0.02121; 0.00094
 533.17; 1201.999;  372.868;14394.606; 0.02602; 0.00116
 533.75;  854.888;   82.365;14400.594; 0.02425; 0.00108
 534.34;  849.389;   46.266;14487.405; 0.02526; 0.00113
 534.92;  984.391;  109.366;14675.321; 0.02740; 0.00123
 535.51;  995.292;   65.267;14802.540; 0.02903; 0.00130
 536.10; 1032.287;   73.565;14892.283; 0.03003; 0.00135
 536.68; 1060.083;   46.464;14930.339; 0.03163; 0.00142
 537.27; 1156.801;   71.169;15110.231; 0.03385; 0.00152
 537.85; 1216.790;   79.266;15302.512; 0.03517; 0.00158
 538.44; 1268.205;   64.070;15447.575; 0.03706; 0.00167
 539.02; 1321.492;   44.966;15526.634; 0.03934; 0.00177
 539.61; 1408.395;   51.267;15661.866; 0.04150; 0.00187
 540.20; 1457.404;   99.270;15878.364; 0.04137; 0.00187
 540.78; 1527.198;   90.468;16158.702; 0.04342; 0.00196
 541.37; 1585.215;   64.073;16286.580; 0.04571; 0.00207
 541.95; 1688.510;  101.471;16484.824; 0.04749; 0.00215
 542.54; 1733.913;   80.672;16728.355; 0.04897; 0.00222
 543.12; 1835.498;  103.568;16867.094; 0.05093; 0.00231
 543.71; 1881.602;   90.769;17189.740; 0.05220; 0.00237
 544.29; 1924.596;   73.468;17314.779; 0.05355; 0.00244
 544.88; 2018.894;   92.767;17689.258; 0.05511; 0.00251
 545.47; 1980.292;   40.767;17727.537; 0.05536; 0.00252
 546.05; 2090.010;   89.871;17966.822; 0.05662; 0.00258
 546.64; 2361.699;  236.468;18134.611; 0.05996; 0.00274
 547.22; 2168.615;   67.473;18293.980; 0.05879; 0.00269
 547.81; 2298.019;  109.374;18506.514; 0.06068; 0.00278
 548.39; 2266.210;   68.371;18651.521; 0.06088; 0.00279
 548.98; 2313.507;   82.770;18741.889; 0.06183; 0.00284
 549.56; 2353.910;   80.571;18939.928; 0.06248; 0.00287
 550.15; 2329.907;   49.370;19057.387; 0.06266; 0.00288
 550.73; 2382.128;   61.976;19266.816; 0.06359; 0.00293
 551.32; 2415.325;   69.075;19436.779; 0.06407; 0.00295
 551.90; 2430.107;   60.871;19450.693; 0.06475; 0.00299
 552.49; 2474.023;   87.875;19831.463; 0.06483; 0.00299
 553.07; 2483.412;  100.672;19986.041; 0.06476; 0.00299
 553.66; 2492.915;   84.973;20108.471; 0.06516; 0.00302
 554.24; 2615.029;  179.276;20174.721; 0.06628; 0.00307
 554.83; 2491.519;   81.874;20293.715; 0.06521; 0.00302
 555.41; 2512.920;   74.874;20431.230; 0.06590; 0.00306
 556.00; 2492.320;   89.774;20531.824; 0.06470; 0.00301
 556.58; 2477.535;   77.378;20630.889; 0.06473; 0.00301
 557.17; 2470.332;   79.077;20893.254; 0.06428; 0.00299
 557.75; 2436.244;   62.280;21027.377; 0.06383; 0.00298
 558.33; 2449.328;   57.876;21327.117; 0.06374; 0.00297
 558.92; 2424.642;   69.480;21511.662; 0.06264; 0.00293
 559.50; 2394.631;   57.177;21679.539; 0.06196; 0.00290
 560.09; 2382.132;   52.377;21966.859; 0.06153; 0.00288
 560.67; 2460.633;   92.177;22094.262; 0.06252; 0.00293
 561.26; 2631.729;  273.977;22325.426; 0.06197; 0.00291
 561.84; 2365.135;   96.578;22537.285; 0.05959; 0.00280
 562.43; 2306.946;   69.881;22665.506; 0.05848; 0.00275
 563.01; 2291.528;   68.476;22804.908; 0.05829; 0.00274
 563.60; 2242.831;   63.477;22987.145; 0.05700; 0.00268
 564.18; 2157.229;   18.377;22954.326; 0.05627; 0.00265
 564.76; 2191.235;   96.978;23225.584; 0.05505; 0.00260
 565.35; 2099.139;   19.179;23472.633; 0.05442; 0.00257
 565.93; 2132.339;   84.879;23797.533; 0.05354; 0.00253
 566.52; 2094.034;   57.978;24374.377; 0.05297; 0.00251
 567.10; 2057.845;   42.481;24673.195; 0.05263; 0.00249
 567.68; 2009.528;   45.276;25084.010; 0.05113; 0.00243
 568.27; 1955.437;   22.979;25516.410; 0.05039; 0.00239
 568.85; 2049.341;  107.380;26141.744; 0.05036; 0.00239
 569.44; 1918.445;   44.781;26641.191; 0.04869; 0.00232
 570.02; 1865.036;    5.678;27187.600; 0.04814; 0.00229
 570.60; 1891.144;   76.581;27742.281; 0.04684; 0.00223
 571.19; 1843.037;   64.579;28157.010; 0.04575; 0.00218
 571.77; 1845.531;   90.277;28428.947; 0.04524; 0.00216
 572.36; 1721.629;   14.977;28979.928; 0.04383; 0.00210
 572.94; 1761.241;   57.780;29391.047; 0.04368; 0.00209
 573.52; 1669.244;   21.580;29856.078; 0.04218; 0.00202
 574.11; 1638.146;   31.081;30210.297; 0.04098; 0.00197
 574.69; 1641.033;   39.278;30610.469; 0.04087; 0.00196
 575.27; 1632.736;   33.378;31068.201; 0.04059; 0.00195
 575.86; 1592.441;   44.780;31324.652; 0.03934; 0.00189
 576.44; 1573.544;   41.781;31821.682; 0.03880; 0.00187
 577.03; 1542.925;   38.175;32242.576; 0.03809; 0.00184
 577.61; 1511.927;   28.576;32332.604; 0.03762; 0.00182
 578.19; 1480.940;   27.179;32663.738; 0.03680; 0.00178
 578.78; 1473.539;   28.379;33150.430; 0.03655; 0.00177
 579.36; 1436.450;   21.282;33498.246; 0.03568; 0.00173
 579.94; 1430.526;   54.176;33838.488; 0.03462; 0.00168
 580.53; 1406.246;   50.281;33925.402; 0.03405; 0.00165
 581.11; 1407.640;   60.479;33902.137; 0.03369; 0.00164
 581.69; 1392.937;   82.579;33934.109; 0.03270; 0.00159
 582.28; 1319.338;   40.579;34024.719; 0.03194; 0.00155
 582.86; 1303.844;   29.580;34404.578; 0.03177; 0.00155
 583.44; 1322.841;   65.680;34290.453; 0.03144; 0.00153
 584.02; 1273.634;   43.078;34502.574; 0.03061; 0.00149
 584.61; 1275.932;   67.677;34367.449; 0.03006; 0.00147
 585.19; 1269.950;   72.082;34147.840; 0.02989; 0.00146
 585.77; 1238.441;   69.280;34324.949; 0.02919; 0.00143
 586.36; 1190.125;   34.775;34220.977; 0.02888; 0.00142
 586.94; 1176.750;   45.182;34264.648; 0.02838; 0.00139
 587.52; 1140.829;   16.577;34169.328; 0.02816; 0.00138
 588.11; 1146.744;   53.080;34027.176; 0.02758; 0.00136
 588.69; 1196.329;   76.376;34133.223; 0.02827; 0.00139
 589.27; 1073.146;   27.181;34017.098; 0.02651; 0.00131
 589.85; 1079.641;   34.080;34200.453; 0.02646; 0.00130
 590.44; 1076.746;   21.681;34417.695; 0.02670; 0.00132
 591.02; 1060.842;   37.680;34525.262; 0.02605; 0.00129
 591.60; 1029.029;   32.876;34488.723; 0.02539; 0.00126
 592.18; 1041.942;   49.980;34247.359; 0.02551; 0.00126
 592.77; 1017.622;   48.875;34253.250; 0.02499; 0.00124
 593.35;  972.950;   16.382;34408.547; 0.02474; 0.00123
 593.93;  920.849;    4.282;34700.426; 0.02367; 0.00117
 594.51;  955.238;   28.279;34792.813; 0.02413; 0.00120
 595.10;  895.938;  -19.621;35006.313; 0.02387; 0.00119
 595.68;  919.247;   37.981;35184.211; 0.02307; 0.00115
 596.26;  881.339;    5.179;35202.832; 0.02300; 0.00115
 596.84;  867.332;  -11.623;35400.758; 0.02316; 0.00116
 597.43;  882.932;   44.577;35554.852; 0.02218; 0.00111
 598.01;  831.929;    5.076;35705.520; 0.02195; 0.00110
 598.59;  808.247;    6.281;35872.508; 0.02131; 0.00107
 599.17;  807.429;   16.776;35825.816; 0.02113; 0.00106
 599.76;  792.040;   -1.421;35690.133; 0.02129; 0.00107
 600.34;  754.021;   -2.426;35831.438; 0.02038; 0.00102
 600.92;  796.633;   36.577;35801.262; 0.02055; 0.00103
 601.50;  723.020;   -4.726;35980.527; 0.01971; 0.00099
 602.08;  804.726;   74.876;35747.195; 0.01990; 0.00100
 602.67;  789.724;   59.875;35853.664; 0.01997; 0.00101
 603.25;  716.643;    6.580;35959.473; 0.01945; 0.00098
 603.83;  698.343;   11.180;35792.375; 0.01893; 0.00096
 604.41;  667.636;   -2.522;35914.496; 0.01853; 0.00094
 604.99;  714.030;   47.377;36049.531; 0.01850; 0.00094
 605.58;  662.818;    9.674;35814.113; 0.01834; 0.00093
 606.16;  658.930;   14.777;35771.234; 0.01817; 0.00092
 606.74;  640.324;   29.775;35656.973; 0.01732; 0.00088
 607.32;  611.645;   15.481;35315.395; 0.01697; 0.00086
 607.90;  684.831;   76.477;35155.938; 0.01741; 0.00088
 608.48;  579.441;   21.180;34978.152; 0.01606; 0.00082
 609.07;  584.349;   53.182;34852.227; 0.01537; 0.00078
 609.65;  701.826;  109.676;34810.895; 0.01715; 0.00087
 610.23;  555.129;   24.477;34730.625; 0.01548; 0.00079
 610.81;  515.635;   -8.022;34496.090; 0.01533; 0.00078
 611.39;  508.129;  -18.224;34449.219; 0.01548; 0.00079
 611.97;  525.726;   23.876;34513.590; 0.01484; 0.00076
 612.55;  508.545;   29.181;34686.289; 0.01418; 0.00073
 613.14;  485.635;   -9.422;34700.883; 0.01472; 0.00075
 613.72;  434.021;  -38.326;34388.938; 0.01417; 0.00073
 614.30;  453.028;   -8.624;34659.613; 0.01383; 0.00071
 614.88;  457.729;    2.576;34379.121; 0.01373; 0.00071
 615.46;  424.333;    2.977;34221.359; 0.01279; 0.00066
 616.04;  471.417;   25.773;33908.996; 0.01366; 0.00070
 616.62;  455.221;   33.174;33753.336; 0.01294; 0.00067
 617.20;  381.123;  -34.725;33597.859; 0.01282; 0.00066
 617.79;  466.224;   50.475;33727.773; 0.01279; 0.00066
 618.37;  379.342;  -18.220;33152.965; 0.01236; 0.00064
 618.95;  411.127;   19.576;33161.605; 0.01225; 0.00063
 619.53;  337.328;  -23.724;32939.707; 0.01135; 0.00059
 620.11;  359.830;   -4.123;33004.430; 0.01150; 0.00060
 620.69;  337.323;   -2.425;32959.859; 0.01079; 0.00056
 621.27;  380.535;   33.878;32839.289; 0.01109; 0.00058
 621.85;  339.728;   15.776;32868.613; 0.01036; 0.00054
 622.43;  302.423;  -10.725;32800.363; 0.01012; 0.00053
 623.01;  276.530;  -52.623;32647.637; 0.01070; 0.00056
 623.59;  243.312;  -42.528;32613.248; 0.00933; 0.00049
 624.17;  293.139;    6.579;32739.422; 0.00939; 0.00049
 624.76;  270.019;  -11.726;32559.518; 0.00928; 0.00048
 625.34;  270.335;  -10.722;32568.980; 0.00932; 0.00049
 625.92;  291.136;   -0.122;32468.295; 0.00969; 0.00051
 626.50;  222.133;  -31.322;32290.064; 0.00849; 0.00044
 627.08;  283.941;   -6.320;32135.045; 0.00976; 0.00051
 627.66;  247.137;    1.679;32275.604; 0.00827; 0.00043
 628.24;  250.116;  -12.027;31949.385; 0.00891; 0.00047
 628.82;  243.219;  -12.326;31947.217; 0.00869; 0.00046
 629.40;  207.929;  -19.124;31771.922; 0.00776; 0.00041
 629.98;  184.021;  -37.626;31671.943; 0.00761; 0.00040
 630.56;  204.613;  -18.428;31838.951; 0.00767; 0.00040
 631.14;  191.530;  -47.123;31703.836; 0.00824; 0.00043
 631.72;  169.607;  -36.630;31831.287; 0.00713; 0.00038
 632.30;  174.720;  -44.926;31650.430; 0.00766; 0.00040
 632.88;  151.518;  -56.627;31645.305; 0.00729; 0.00039
 633.46;  158.231;  -48.723;31591.738; 0.00728; 0.00039
 634.04;  183.616;  -20.727;31630.781; 0.00720; 0.00038
 634.62;  225.526;   13.576;31356.793; 0.00755; 0.00040
 635.20;  198.522;   -5.226;31504.246; 0.00725; 0.00039
 635.78;  120.423;  -48.825;31576.955; 0.00607; 0.00032
 636.36;  124.422;  -48.025;31361.947; 0.00623; 0.00033
 636.94;  197.707;   18.171;31584.695; 0.00649; 0.00035
 637.52;  143.313;  -31.428;31522.854; 0.00635; 0.00034
 638.10;   95.413;  -67.128;31509.953; 0.00592; 0.00032
 638.68;  146.209;  -30.029;31569.314; 0.00644; 0.00034
 639.26;  169.932;  -15.123;31614.053; 0.00679; 0.00036
 639.84;  227.427;   30.876;31718.201; 0.00723; 0.00039
 640.42;   97.623;  -48.125;31593.980; 0.00538; 0.00029
 641.00;   87.624;  -72.625;31727.652; 0.00591; 0.00032
 641.58;  112.725;  -32.725;31806.523; 0.00538; 0.00029
 642.16;  109.425;  -36.525;31878.197; 0.00540; 0.00029
 642.74;  131.926;  -15.124;32005.869; 0.00546; 0.00029
 643.32;  117.026;  -16.024;32003.541; 0.00496; 0.00027
 643.90;  102.427;  -24.724;31874.514; 0.00476; 0.00026
 644.47;  112.827;  -33.924;31967.086; 0.00552; 0.00030
 645.05;   86.528;  -43.024;32259.957; 0.00487; 0.00026
 645.63;   97.229;  -29.624;32513.930; 0.00477; 0.00026
 646.21;   97.629;  -40.423;32526.102; 0.00522; 0.00028
 646.79;  120.130;  -18.323;32665.674; 0.00524; 0.00028
 647.37;   76.030;  -48.523;32710.047; 0.00474; 0.00026
 647.95;  140.331;   11.777;32776.320; 0.00490; 0.00027
 648.53;  113.432;  -17.623;32969.391; 0.00500; 0.00027
 649.11;   52.932;  -59.123;33030.465; 0.00430; 0.00023
 649.69;   47.433;  -62.923;33200.035; 0.00424; 0.00023
 650.27;   61.533;  -37.322;33310.707; 0.00380; 0.00021
 650.85;   62.634;  -50.422;33928.180; 0.00435; 0.00024
 651.42;   59.135;  -54.322;34418.152; 0.00439; 0.00024
 652.00;   16.035;  -69.822;34969.625; 0.00331; 0.00018
 652.58;   42.236;  -42.522;35191.797; 0.00328; 0.00018
 653.16;   62.436;  -49.022;36135.668; 0.00433; 0.00024
 653.74;   87.337;  -19.021;36648.441; 0.00413; 0.00023
 654.32;  115.338;    0.879;37165.813; 0.00445; 0.00024
 654.90;   50.638;  -21.321;37183.387; 0.00280; 0.00015
 655.48;   33.139;  -53.621;36928.457; 0.00339; 0.00019
 656.05;   10.539;  -79.821;36971.133; 0.00353; 0.00019
 656.63;   31.040;  -44.121;37052.504; 0.00294; 0.00016
 657.21;   54.140;  -39.120;36949.676; 0.00366; 0.00020
 657.79;  108.541;   20.480;36851.949; 0.00345; 0.00019
 658.37;  231.642;   92.380;36239.219; 0.00548; 0.00030
 658.95;   43.842;  -40.820;35664.891; 0.00334; 0.00018
 659.53;   39.843;  -26.220;35354.664; 0.00260; 0.00014
 660.10;   32.043;  -46.620;34605.535; 0.00312; 0.00017
 660.68;   44.744;  -48.119;34863.910; 0.00368; 0.00020
 661.26;   62.745;  -22.219;34861.480; 0.00337; 0.00019
 661.84;   78.345;   -6.319;34877.855; 0.00337; 0.00019
 662.42;   42.346;  -33.619;34987.824; 0.00303; 0.00017
 663.00;  104.746;    2.181;35223.297; 0.00409; 0.00023
 663.57;   42.147;  -25.819;35418.969; 0.00271; 0.00015
 664.15;    9.348;  -59.519;35596.441; 0.00274; 0.00015
 664.73;   58.948;  -22.218;35720.516; 0.00324; 0.00018
 665.31;   23.849;  -41.418;35988.887; 0.00261; 0.00014
 665.89;   31.749;  -33.618;36325.660; 0.00260; 0.00014
 666.46;    9.150;  -65.918;36449.031; 0.00298; 0.00017
 667.04;    0.351;  -67.318;36462.703; 0.00269; 0.00015
 667.62;   17.451;  -53.018;36704.078; 0.00280; 0.00016
 668.20;   56.652;  -13.117;36966.848; 0.00278; 0.00016
 668.78;   33.652;  -47.417;37359.223; 0.00321; 0.00018
 669.35;  261.853;  130.883;37649.895; 0.00518; 0.00029
 669.93;   23.653;  -43.617;37991.066; 0.00265; 0.00015
 670.51;   -0.546;  -76.017;38145.738; 0.00297; 0.00017
 671.09;   14.055;  -49.617;38209.109; 0.00250; 0.00014
 671.66;   46.355;  -13.216;38580.684; 0.00233; 0.00013
 672.24;  -12.644;  -62.016;38670.656; 0.00193; 0.00011
 672.82;   35.856;  -34.916;39357.125; 0.00275; 0.00015
 673.40;   -8.643;  -60.016;39317.500; 0.00201; 0.00011
 673.97;   35.158;  -39.716;39754.371; 0.00292; 0.00016
 674.55;   -4.442;  -69.416;40012.742; 0.00254; 0.00014
 675.13;   40.059;  -27.216;40245.215; 0.00263; 0.00015
 675.71;  -23.541;  -81.115;40351.789; 0.00226; 0.00013
 676.28;   41.460;  -32.215;40497.563; 0.00289; 0.00016
 676.86;   23.261;  -35.215;40881.934; 0.00228; 0.00013
 677.44;   29.461;  -39.115;41243.406; 0.00266; 0.00015
 678.01;  -13.238;  -56.715;41566.777; 0.00167; 0.00009
 678.59;   10.462;  -41.615;41856.949; 0.00200; 0.00011
 679.17;   49.263;  -15.414;42126.723; 0.00247; 0.00014
 679.75;   -0.436;  -61.014;42527.496; 0.00230; 0.00013
 680.32;  -13.236;  -63.114;42799.965; 0.00189; 0.00011
 680.90;    5.965;  -73.114;42983.039; 0.00300; 0.00017
 681.48;    9.365;  -35.014;43704.012; 0.00166; 0.00009
 682.05;   43.666;  -15.214;43718.582; 0.00222; 0.00013
 682.63;  -26.734;  -83.013;44042.055; 0.00212; 0.00012
 683.21;    5.067;  -66.313;44531.629; 0.00267; 0.00015
 683.78;   13.468;  -48.413;44788.398; 0.00231; 0.00013
 684.36;  -22.232;  -67.313;44854.273; 0.00169; 0.00010
 684.94;  -32.431;  -70.513;45147.445; 0.00142; 0.00008
 685.52;    4.069;  -45.613;45579.016; 0.00185; 0.00011
 686.09;  -27.530;  -63.112;45676.688; 0.00133; 0.00008
 686.67;  -20.729;  -72.812;45566.063; 0.00196; 0.00011
 687.25;    5.571;  -34.212;45785.234; 0.00150; 0.00009
 687.82;  -24.228;  -59.912;45951.406; 0.00134; 0.00008
 688.40;    9.372;  -33.312;46290.379; 0.00160; 0.00009
 688.97;  -11.027;  -63.312;46223.852; 0.00197; 0.00011
 689.55;  -11.526;  -73.912;46394.621; 0.00235; 0.00014
 690.13;    2.674;  -32.711;46349.594; 0.00133; 0.00008
 690.70;   59.575;    3.589;46622.266; 0.00212; 0.00012
 691.28;    9.275;  -30.511;46828.539; 0.00150; 0.00009
 691.86;   20.676;  -26.811;47108.512; 0.00179; 0.00010
 692.43;  -18.923;  -49.811;47368.785; 0.00117; 0.00007
 693.01;  -10.623;  -48.211;47615.758; 0.00142; 0.00008
 693.59;   56.378;    4.790;47501.730; 0.00195; 0.00011
 694.16;  -27.122;  -71.310;47670.801; 0.00168; 0.00010
 694.74;    8.379;  -35.810;48102.574; 0.00167; 0.00010
 695.31;  -26.821;  -67.010;48244.445; 0.00152; 0.00009
 695.89;  -32.220;  -65.610;48315.719; 0.00127; 0.00007
 696.47;  -30.519;  -65.310;48414.789; 0.00132; 0.00008
 697.04;   81.381;   27.591;48520.863; 0.00205; 0.00012
 697.62;   23.982;  -11.709;48766.734; 0.00136; 0.00008
 698.19;    8.082;  -43.109;48808.207; 0.00195; 0.00011
 698.77;   31.983;  -14.509;49016.680; 0.00177; 0.00010
 699.34;    9.984;  -23.609;49065.551; 0.00128; 0.00007
 699.92;    5.984;  -31.909;49022.223; 0.00144; 0.00008
 700.50;  -31.415;  -62.509;49321.195; 0.00118; 0.00007
 701.07;  -13.015;  -41.808;49435.668; 0.00110; 0.00006
 701.65;   13.086;  -40.408;49736.641; 0.00203; 0.00012
 702.22;   18.987;  -27.708;49895.914; 0.00178; 0.00010
 702.80;   15.587;  -12.708;49964.785; 0.00108; 0.00006
 703.37;   27.888;  -17.408;50193.457; 0.00173; 0.00010
 703.95;   27.488;  -25.908;50479.629; 0.00204; 0.00012
 704.52;    2.289;  -36.807;50941.102; 0.00149; 0.00009
 705.10;  -20.010;  -71.907;51257.973; 0.00198; 0.00012
 705.68;  -42.810;  -71.807;51457.348; 0.00111; 0.00007
 706.25;  -20.409;  -51.107;51790.617; 0.00117; 0.00007
 706.83;   -6.709;  -19.407;51709.492; 0.00049; 0.00003
 707.40;   41.892;   -5.507;51802.363; 0.00182; 0.00011
 707.98;    1.892;  -32.306;52174.938; 0.00131; 0.00008
 708.55;  -12.207;  -41.406;52212.406; 0.00112; 0.00007
 709.13;  -11.006;  -39.006;52351.980; 0.00107; 0.00006
 709.70;   36.494;  -10.106;52634.453; 0.00179; 0.00011
 710.28;   11.895;  -34.606;52829.727; 0.00178; 0.00011
 710.85;  -16.705;  -46.506;52866.598; 0.00114; 0.00007
 711.43;  -21.904;  -57.805;53221.270; 0.00137; 0.00008
 712.00;   49.297;    4.195;53035.141; 0.00173; 0.00010
 712.58;   -9.803;  -32.305;53267.813; 0.00086; 0.00005
 713.15;    7.698;  -18.105;53512.387; 0.00099; 0.00006
 713.73;  169.498;  106.895;53688.059; 0.00241; 0.00014
 714.30;   24.599;   -7.605;53973.031; 0.00124; 0.00007
 714.88;  -42.100;  -56.705;53874.602; 0.00056; 0.00003
 715.45;   18.900;  -12.804;54110.676; 0.00122; 0.00007
 716.03;   -3.099;  -38.504;54504.449; 0.00136; 0.00008
 716.60;   -4.199;  -36.304;54248.020; 0.00124; 0.00007
 717.17;  -26.198;  -50.204;54334.492; 0.00093; 0.00006
 717.75;   -9.997;  -28.204;54719.965; 0.00070; 0.00004
 718.32;   20.203;   -5.404;54422.438; 0.00100; 0.00006
 718.90;  -15.196;  -44.003;54219.508; 0.00113; 0.00007
 719.47;   12.004;  -34.803;54395.980; 0.00183; 0.00011
 720.05;   17.805;  -19.203;54543.352; 0.00145; 0.00009
 720.62;  -15.795;  -32.503;54725.727; 0.00066; 0.00004
 721.20;   48.006;    1.497;54603.398; 0.00184; 0.00011
 721.77;   37.407;  -13.003;54810.770; 0.00199; 0.00012
 722.34;    7.307;  -25.502;54964.742; 0.00130; 0.00008
 722.92;  -33.192;  -69.302;54886.816; 0.00144; 0.00009
 723.49;  -71.992;  -86.002;55052.387; 0.00056; 0.00003
 724.07;    3.709;  -14.402;55315.660; 0.00072; 0.00004
 724.64;  -17.290;  -38.502;55283.133; 0.00085; 0.00005
 725.21;    4.810;  -36.502;55661.605; 0.00165; 0.00010
 725.79;   16.911;  -14.802;55881.777; 0.00126; 0.00008
 726.36;   -1.889;  -24.801;56024.648; 0.00091; 0.00006
 726.94;   -3.488;  -42.201;56315.820; 0.00155; 0.00009
 727.51;   -9.687;  -31.701;56807.895; 0.00088; 0.00005
 728.08;  -25.487;  -40.401;56846.766; 0.00060; 0.00004
 728.66;    3.014;  -36.201;57255.438; 0.00157; 0.00010
 729.23;  -28.386;  -46.301;57826.512; 0.00071; 0.00004
 729.80;  -46.585;  -65.500;57723.582; 0.00076; 0.00005
 730.38;    4.816;  -24.600;58136.555; 0.00118; 0.00007
 730.95;  -35.284;  -48.200;58380.727; 0.00052; 0.00003
 731.53;   13.717;  -19.900;58386.398; 0.00135; 0.00008
 732.10;   16.717;  -26.100;58444.473; 0.00172; 0.00011
 732.67;  -20.882;  -49.900;58673.445; 0.00117; 0.00007
 733.25;   48.318;   13.001;58645.816; 0.00143; 0.00009
 733.82;  -17.881;  -41.199;58935.488; 0.00094; 0.00006
 734.39;   -2.680;  -26.699;59133.359; 0.00097; 0.00006
 734.97;  -31.380;  -48.699;59207.234; 0.00070; 0.00004
 735.54;   56.121;   24.901;59275.906; 0.00126; 0.00008
 736.11;   -5.479;  -27.699;59227.777; 0.00090; 0.00006
 736.69;   47.322;   21.402;59661.551; 0.00105; 0.00006
 737.26;   -5.577;  -17.298;59761.621; 0.00047; 0.00003
 737.83;  -22.477;  -53.198;59570.594; 0.00125; 0.00008
 738.41;  -47.476;  -65.298;59493.766; 0.00073; 0.00004
 738.98;  -11.876;  -44.998;59380.039; 0.00135; 0.00008
 739.55;   36.825;    2.402;59269.609; 0.00141; 0.00009
 740.12;  -15.074;  -43.198;59404.781; 0.00115; 0.00007
 740.70;  -36.074;  -58.897;59095.055; 0.00094; 0.00006
 741.27;  -37.373;  -58.297;59266.027; 0.00086; 0.00005
 741.84;  -64.973;  -78.697;58997.301; 0.00057; 0.00004
 742.42;  -26.972;  -47.997;58935.172; 0.00087; 0.00005
 742.99;   52.729;    2.903;59108.945; 0.00206; 0.00013
 743.56;  -18.371;  -38.597;58782.516; 0.00084; 0.00005
 744.13;  -43.570;  -60.096;58925.988; 0.00069; 0.00004
 744.71;  164.230;   98.204;59260.961; 0.00275; 0.00017
 745.28;   -3.669;  -24.796;59793.035; 0.00088; 0.00005
 745.85;  -27.669;  -48.396;60592.605; 0.00087; 0.00005
 746.42;   -6.068;  -34.996;60780.477; 0.00122; 0.00008
 747.00;  -10.267;  -27.496;60843.250; 0.00073; 0.00005
 747.57;  143.433;   94.605;61990.422; 0.00206; 0.00013
 748.14;  -27.666;  -42.195;62691.895; 0.00062; 0.00004
 748.71;   10.134;  -16.295;62852.969; 0.00113; 0.00007
 749.29;    9.635;  -22.195;63047.340; 0.00136; 0.00009
 749.86;    9.236;  -34.295;62964.410; 0.00186; 0.00012
 750.43;  -14.264;  -37.195;62938.785; 0.00099; 0.00006
 751.00;  -44.663;  -60.395;63066.457; 0.00068; 0.00004
 751.58;  -38.163;  -53.194;62976.328; 0.00065; 0.00004
 752.15;  189.838;  103.706;62703.602; 0.00374; 0.00024
 752.72;  -50.061;  -67.394;62198.273; 0.00076; 0.00005
 753.29;  109.739;   53.406;61943.344; 0.00246; 0.00016
 753.86;  -34.460;  -64.594;61476.219; 0.00132; 0.00008
 754.44;    2.040;  -19.394;60961.590; 0.00094; 0.00006
 755.01;  -30.159;  -43.793;61186.664; 0.00060; 0.00004
 755.58;   -8.558;  -41.493;61188.133; 0.00146; 0.00009
 756.15;   -3.858;  -33.793;61287.309; 0.00133; 0.00008
 756.72;   27.943;   -8.993;61241.980; 0.00165; 0.00010
 757.29;   -9.557;  -25.193;61520.852; 0.00070; 0.00004
 757.87;  -43.956;  -66.893;61177.625; 0.00104; 0.00007
 758.44;  -30.356;  -49.592;61340.598; 0.00087; 0.00006
 759.01;   -6.755;  -33.492;61652.770; 0.00121; 0.00008
 759.58;  -39.854;  -61.392;61150.539; 0.00099; 0.00006
 760.15;   27.446;  -19.092;61244.414; 0.00214; 0.00014
 760.72;  -42.453;  -66.892;61275.887; 0.00113; 0.00007
 761.30;  -44.453;  -57.292;61491.059; 0.00059; 0.00004
 761.87;  -10.852;  -23.091;61700.730; 0.00057; 0.00004
 762.44;  -30.551;  -58.191;61389.602; 0.00129; 0.00008
 763.01;   15.149;  -12.991;61658.973; 0.00131; 0.00008
 763.58;    6.250;  -14.891;61295.145; 0.00100; 0.00006
 764.15;    8.150;  -24.191;61126.418; 0.00153; 0.00010
 764.72;    1.651;  -36.591;61225.391; 0.00181; 0.00012
 765.30;  -17.848;  -56.491;60961.664; 0.00184; 0.00012
 765.87;  -23.348;  -36.690;60665.336; 0.00064; 0.00004
 766.44;   62.453;   14.410;60815.809; 0.00231; 0.00015
 767.01;   55.253;    3.110;60390.180; 0.00252; 0.00016
 767.58;  -56.546;  -90.290;60249.254; 0.00164; 0.00011
 768.15;   26.055;    4.410;60025.125; 0.00106; 0.00007
 768.72;  -33.745;  -60.090;60071.797; 0.00129; 0.00008
 769.29;  -28.344;  -67.089;59639.867; 0.00191; 0.00012
 769.86;   15.556;  -23.589;59723.941; 0.00194; 0.00012
 770.43;  -52.343;  -70.789;59481.012; 0.00092; 0.00006
 771.00;  -10.543;  -23.889;59468.387; 0.00067; 0.00004
 771.58;   -8.842;  -28.989;59318.758; 0.00101; 0.00007
 772.15;  -36.541;  -52.189;58759.230; 0.00079; 0.00005
 772.72;  -11.241;  -37.988;58501.004; 0.00136; 0.00009
 773.29;  -24.740;  -35.288;58823.375; 0.00054; 0.00003
 773.86;  -48.840;  -63.988;58642.848; 0.00078; 0.00005
 774.43;  -21.539;  -45.688;58347.719; 0.00125; 0.00008
 775.00;    0.262;  -35.588;58084.594; 0.00186; 0.00012
 775.57;    0.362;  -19.788;58187.266; 0.00105; 0.00007
 776.14;    6.463;  -18.088;57666.438; 0.00129; 0.00008
 776.71;    7.663;   -8.287;57754.707; 0.00084; 0.00005
 777.28;  -29.136;  -40.287;57916.582; 0.00059; 0.00004
 777.85;  -16.135;  -35.687;57633.352; 0.00104; 0.00007
 778.42;   -4.135;  -21.987;57701.227; 0.00095; 0.00006
 778.99;   15.966;   -5.487;57689.199; 0.00115; 0.00007
 779.56;  -25.134;  -38.687;57683.570; 0.00073; 0.00005
 780.13;  -21.233;  -32.086;57522.441; 0.00059; 0.00004
 780.70;   14.168;   -9.286;57127.715; 0.00129; 0.00008
 781.27;    8.968;   -7.286;57373.688; 0.00089; 0.00006
 781.84;  -42.831;  -46.486;57035.359; 0.00020; 0.00001
 782.41;   24.269;    2.714;57011.230; 0.00120; 0.00008
 782.98;  -11.030;  -40.186;56933.703; 0.00163; 0.00011
 783.55;   -2.430;  -26.885;56749.277; 0.00137; 0.00009
 784.12;   -4.629;   -8.485;56663.449; 0.00022; 0.00001
 784.69;   28.972;   -0.885;56571.520; 0.00170; 0.00011
 785.26;  -31.328;  -38.585;56155.594; 0.00042; 0.00003
 785.83;  -60.327;  -65.785;56493.266; 0.00031; 0.00002
 786.40;  -11.327;    0.715;56145.137;-0.00069;-0.00005
 786.97;   28.474;    3.616;56138.109; 0.00144; 0.00009
 787.54;   22.775;   10.016;55947.883; 0.00075; 0.00005
 788.11;   25.375;    3.716;55781.355; 0.00127; 0.00008
 788.68;  -19.624;  -43.284;55704.926; 0.00140; 0.00009
 789.25;  -18.024;  -19.784;55524.000; 0.00010; 0.00001
 789.82;    3.077;  -19.184;55552.473; 0.00133; 0.00009
 790.39;    8.378;  -20.284;55451.941; 0.00173; 0.00011
 790.96;  -24.022;  -30.183;55430.816; 0.00037; 0.00002
 791.52;  -30.121;  -42.683;55217.586; 0.00077; 0.00005
 792.09;   52.979;   20.717;55290.262; 0.00197; 0.00013
 792.66;   -8.120;  -17.783;54793.531; 0.00060; 0.00004
 793.23;   64.181;   29.917;54894.703; 0.00212; 0.00014
 793.80;    6.281;  -20.883;54770.176; 0.00169; 0.00011
 794.37;    3.582;  -12.482;54456.648; 0.00101; 0.00007
 794.94;    4.482;  -15.882;54176.121; 0.00128; 0.00009
 795.51;  -10.017;  -28.782;54046.492; 0.00119; 0.00008
 796.08;  -14.017;  -24.282;53871.066; 0.00065; 0.00004
 796.65;   -9.316;  -32.682;53578.039; 0.00150; 0.00010
 797.21;   32.185;   15.018;53301.109; 0.00110; 0.00007
 797.78;   11.085;   -2.581;52997.883; 0.00088; 0.00006
 798.35;   44.486;   21.219;52509.055; 0.00152; 0.00010
 798.92;  717.086;  513.919;52532.129; 0.01328; 0.00089
 799.49;  -16.013;  -35.681;52089.301; 0.00130; 0.00009
 800.06;   35.688;   28.719;51915.273; 0.00046; 0.00003
 800.63;   25.888;   14.719;51659.145; 0.00075; 0.00005
 801.20;    1.089;   -5.981;51781.215; 0.00047; 0.00003
 801.76;    5.989;  -16.280;51808.391; 0.00150; 0.00010
 802.33;   10.090;  -19.980;51489.063; 0.00204; 0.00014
 802.90;   48.391;   13.720;51322.234; 0.00237; 0.00016
 803.47;   -9.209;  -18.880;51648.906; 0.00066; 0.00004
 804.04;  -13.808;  -35.980;51628.277; 0.00152; 0.00010
 804.61;   36.192;   19.920;51369.352; 0.00112; 0.00008
 805.17;  -11.307;  -29.679;51365.223; 0.00127; 0.00009
 805.74;  -10.906;  -39.079;51444.695; 0.00194; 0.00013
 806.31;   12.894;   -5.479;51037.367; 0.00128; 0.00009
 806.88;  -46.905;  -54.379;51096.238; 0.00052; 0.00004
 807.45;  -52.505;  -68.279;50997.012; 0.00110; 0.00007
 808.01;    4.696;  -10.179;50947.582; 0.00104; 0.00007
 808.58;   63.396;   46.122;50841.555; 0.00122; 0.00008
 809.15;    6.397;   -2.878;50956.328; 0.00065; 0.00004
 809.72;   28.598;   -0.878;50689.500; 0.00209; 0.00014
 810.29;    6.098;  -17.978;50169.973; 0.00173; 0.00012
 810.85;    4.399;  -26.178;50108.844; 0.00221; 0.00015
 811.42;   -8.501;  -28.178;49628.117; 0.00144; 0.00010
 811.99;  -16.300;  -21.777;49373.191; 0.00040; 0.00003
 812.56;  -20.199;  -33.177;48973.660; 0.00097; 0.00007
 813.12;   14.601;   -3.077;48451.535; 0.00133; 0.00009
 813.69;    6.302;  -13.577;48256.105; 0.00151; 0.00010
 814.26;    0.302;  -20.277;47696.578; 0.00158; 0.00011
 814.83;  -17.797;  -31.777;47276.250; 0.00109; 0.00007
 815.39;  -34.496;  -59.377;47147.422; 0.00195; 0.00013
 815.96;    9.204;  -17.676;46894.797; 0.00212; 0.00014
 816.53;   84.705;   31.324;46686.770; 0.00424; 0.00029
 817.10;  -23.395;  -36.476;46572.539; 0.00105; 0.00007
 817.66;  -55.494;  -62.676;46288.414; 0.00058; 0.00004
 818.23;  -61.093;  -64.176;46067.184; 0.00025; 0.00002
 818.80;  -33.693;  -57.476;45888.656; 0.00194; 0.00013
 819.37;    5.208;  -14.975;45872.930; 0.00166; 0.00011
 819.93;  -26.192;  -52.875;45789.703; 0.00220; 0.00015
 820.50;  -58.791;  -60.375;45226.676; 0.00013; 0.00001
 821.07;  -46.891;  -53.175;45200.645; 0.00053; 0.00004
 821.63;  124.510;   55.925;44835.719; 0.00580; 0.00040
 822.20;   92.511;   64.025;44818.590; 0.00241; 0.00017
 822.77;   15.511;  -15.174;44641.164; 0.00262; 0.00018
 823.34;  -14.588;  -35.774;44447.734; 0.00182; 0.00013
 823.90;  -31.888;  -36.574;44150.906; 0.00041; 0.00003
 824.47;   22.813;  -11.074;44035.379; 0.00295; 0.00020
 825.04;  -25.386;  -41.474;43910.254; 0.00141; 0.00010
 825.60;   -7.086;  -14.574;43882.324; 0.00066; 0.00005
 826.17;  -37.385;  -55.874;43471.496; 0.00164; 0.00011
 826.74;  -36.485;  -44.173;43311.770; 0.00069; 0.00005
 827.30;  -44.784;  -53.173;42923.641; 0.00075; 0.00005
 827.87;    3.017;  -20.273;42849.914; 0.00210; 0.00015
 828.43;   -9.283;  -26.873;42678.484; 0.00159; 0.00011
 829.00;  -32.282;  -65.173;42585.656; 0.00299; 0.00021
 829.57;  -10.282;  -25.773;42440.332; 0.00141; 0.00010
 830.13;  -66.081;  -73.272;42015.703; 0.00066; 0.00005
 830.70;  -33.580;  -56.972;41864.375; 0.00216; 0.00015
 831.27;  -17.880;  -33.672;41474.148; 0.00147; 0.00010
 831.83;  -51.879;  -53.372;41387.020; 0.00014; 0.00001
 832.40;   -9.479;  -22.572;41185.090; 0.00123; 0.00009
 832.97;   37.122;    6.828;41002.664; 0.00286; 0.00020
 833.53;  -25.278;  -43.071;41077.836; 0.00168; 0.00012
 834.10;  -32.277;  -39.071;40836.008; 0.00065; 0.00005
 834.66;  -25.876;  -53.871;40648.781; 0.00268; 0.00019
 835.23;  -18.976;  -42.671;40573.055; 0.00228; 0.00016
 835.80;  -43.875;  -61.771;40440.824; 0.00173; 0.00012
 836.36;  -32.575;  -41.671;40334.199; 0.00088; 0.00006
 836.93;    6.726;  -18.970;40271.168; 0.00250; 0.00018
 837.49;   41.427;   18.630;40151.543; 0.00223; 0.00016
 838.06;   -7.173;  -28.470;40058.313; 0.00209; 0.00015
 838.62;  -25.772;  -48.070;39899.086; 0.00220; 0.00015
 839.19;   -3.672;  -37.770;39905.758; 0.00338; 0.00024
 839.76;  -24.671;  -32.870;39728.430; 0.00082; 0.00006
 840.32;  -39.970;  -66.470;39485.805; 0.00266; 0.00019
 840.89;  219.230;  172.031;39678.176; 0.00474; 0.00033
 841.45;  -13.869;  -25.669;39488.348; 0.00119; 0.00008
 842.02;  -50.069;  -76.369;39167.621; 0.00268; 0.00019
 842.58;  -46.168;  -50.069;39187.094; 0.00040; 0.00003
 843.15;   42.133;   -4.269;39180.465; 0.00476; 0.00034
 843.71;  -25.767;  -48.569;39060.836; 0.00234; 0.00017
 844.28;  -82.366;  -79.768;38864.809;-0.00027;-0.00002
 844.84;   10.134;  -21.268;38862.082; 0.00325; 0.00023
 845.41;  -24.565;  -51.168;38615.355; 0.00278; 0.00020
 845.97;  -42.365;  -56.768;38402.527; 0.00151; 0.00011
 846.54;  -25.764;  -51.168;38075.898; 0.00269; 0.00019
 847.10;  -21.363;  -35.168;38229.371; 0.00146; 0.00010
 847.67;  -56.063;  -58.667;37966.344; 0.00028; 0.00002
 848.23;  -33.962;  -48.767;38067.414; 0.00158; 0.00011
 848.80;   -3.862;  -17.467;38042.086; 0.00145; 0.00010
 849.36;  -37.861;  -46.167;37738.262; 0.00089; 0.00006
 849.93;  -16.460;  -31.867;37655.934; 0.00167; 0.00012
 850.49;  -21.360;  -39.867;37582.004; 0.00202; 0.00014
 851.06;  -59.859;  -69.367;37505.277; 0.00104; 0.00007
 851.62;  -37.859;  -54.266;37262.051; 0.00181; 0.00013
 852.19;  -39.058;  -42.866;37233.020; 0.00042; 0.00003
 852.75;  -33.157;  -60.466;37155.895; 0.00302; 0.00022
 853.32;  -25.857;  -28.666;37105.266; 0.00031; 0.00002
 853.88;   -5.956;  -39.666;36902.438; 0.00378; 0.00027
 854.45;    4.944;  -18.166;37137.012; 0.00258; 0.00018
 855.01;   14.645;   -2.965;37010.383; 0.00198; 0.00014
 855.57;  -29.954;  -51.465;36921.453; 0.00243; 0.00017
 856.14;  -55.654;  -63.265;36626.629; 0.00086; 0.00006
 856.70;  -47.153;  -49.365;36714.199; 0.00025; 0.00002
 857.27;  -28.553;  -44.865;36510.172; 0.00187; 0.00013
 857.83;  -72.952;  -84.265;36357.344; 0.00130; 0.00009
 858.40;   28.848;   -2.264;36322.215; 0.00358; 0.00026
 858.96;  -18.051;  -44.364;36140.387; 0.00306; 0.00022
 859.52;  -10.950;  -42.264;36171.262; 0.00363; 0.00026
 860.09;  -14.450;  -43.564;35921.734; 0.00340; 0.00024
 860.65;  -12.749;  -34.264;35764.504; 0.00252; 0.00018
 861.22;  -34.249;  -42.764;35727.977; 0.00100; 0.00007
 861.78;    3.452;  -17.363;35638.051; 0.00246; 0.00018
 862.34;  -32.047;  -50.163;35649.922; 0.00215; 0.00015
 862.91;  -22.047;  -41.863;35682.594; 0.00235; 0.00017
 863.47;  124.054;   60.137;35224.566; 0.00767; 0.00055
 864.03;  -49.146;  -59.263;35401.738; 0.00121; 0.00009
 864.60;    7.955;  -21.663;35293.512; 0.00356; 0.00026
 865.16;  -61.644;  -66.963;35132.184; 0.00064; 0.00005
 865.73;  -27.344;  -31.262;35111.855; 0.00048; 0.00003
 866.29;  132.757;   71.938;35043.527; 0.00741; 0.00054
 866.85;  -53.043;  -70.162;34721.301; 0.00210; 0.00015
 867.42;   -9.242;  -40.162;34616.371; 0.00380; 0.00028
 867.98;  -51.741;  -64.262;34527.145; 0.00155; 0.00011
 868.54;    7.459;  -24.162;34441.617; 0.00392; 0.00028
 869.11;  -46.740;  -61.461;34366.289; 0.00183; 0.00013
 869.67;  -33.940;  -42.861;34234.863; 0.00112; 0.00008
 870.23;  -35.639;  -40.861;34228.133; 0.00066; 0.00005
 870.80;  -13.339;  -52.761;33878.707; 0.00502; 0.00037
 871.36;  -42.238;  -63.361;33584.379; 0.00272; 0.00020
 871.92;   34.863;    8.139;33514.352; 0.00346; 0.00025
 872.48;  -52.437;  -60.360;33352.023; 0.00103; 0.00008
 873.05;  -22.436;  -35.560;33107.297; 0.00173; 0.00013
 873.61;  -23.236;  -45.160;33006.969; 0.00289; 0.00021
 874.17;  -13.435;  -40.060;32897.238; 0.00353; 0.00026
 874.74;  -40.235;  -53.560;32747.340; 0.00177; 0.00013
 875.30;  -14.935;  -37.760;32872.738; 0.00305; 0.00022
 875.86;  -36.135;  -51.360;32962.238; 0.00203; 0.00015
 876.42;  -43.635;  -67.560;32924.941; 0.00320; 0.00023
 876.99;  -27.935;  -48.260;32876.039; 0.00273; 0.00020
 877.55;  -24.235;  -37.360;32981.738; 0.00176; 0.00013
 878.11;    2.465;  -22.860;32831.238; 0.00341; 0.00025
 878.68;  -25.735;  -32.460;32682.740; 0.00091; 0.00007
 879.24;   -7.935;  -39.460;32631.039; 0.00428; 0.00031
 879.80;    1.565;  -20.160;32451.240; 0.00297; 0.00022
 880.36;  -16.035;  -46.060;32387.539; 0.00411; 0.00030
 880.92;  -10.435;  -26.660;32337.240; 0.00222; 0.00016
 881.49;   -9.035;  -40.960;32357.840; 0.00439; 0.00032
 882.05;  -17.135;  -23.460;32220.439; 0.00087; 0.00006
 882.61;   28.765;   10.040;32083.240; 0.00260; 0.00019
 883.17;   -9.535;  -41.360;32091.740; 0.00443; 0.00033
 883.74;   -3.635;  -34.960;32096.439; 0.00438; 0.00032
 884.30;  -40.635;  -64.260;31958.539; 0.00331; 0.00024
 884.86;    7.965;   -1.260;32176.439; 0.00129; 0.00010
 885.42;  -13.935;  -51.460;32150.439; 0.00527; 0.00039
 885.98;  -39.635;  -57.160;32145.740; 0.00245; 0.00018
 886.55;  -21.135;  -37.560;32321.740; 0.00230; 0.00017
 887.11;   -8.135;  -30.260;32423.840; 0.00309; 0.00023
 887.67;   -5.235;  -20.460;32421.840; 0.00213; 0.00016
 888.23;  -37.835;  -65.360;32570.340; 0.00383; 0.00028
 888.79;    8.465;  -21.260;32596.740; 0.00414; 0.00031
 889.35;  -54.735;  -61.160;32642.240; 0.00089; 0.00007
 889.92;   -1.235;  -17.060;32765.641; 0.00220; 0.00016
 890.48;  166.965;  103.240;32825.039; 0.00882; 0.00066
 891.04;  -23.735;  -43.860;32990.238; 0.00277; 0.00021
 891.60;  -50.835;  -53.960;33047.441; 0.00043; 0.00003
 892.16;    8.565;  -20.360;33188.941; 0.00397; 0.00030
 892.72;  -32.835;  -52.660;33357.141; 0.00271; 0.00020
 893.29;  -48.435;  -67.860;33494.738; 0.00264; 0.00020
 893.85;  -52.935;  -38.260;33665.738;-0.00199;-0.00015
 894.41;  -70.435;  -50.860;33926.641;-0.00265;-0.00020
 894.97;    9.465;  -10.160;33988.340; 0.00265; 0.00020
 895.53;  -36.835;  -52.860;34219.238; 0.00215; 0.00016
 896.09;  -21.235;  -52.360;34269.340; 0.00417; 0.00031
 896.65;  -34.135;  -45.760;34260.641; 0.00156; 0.00012
 897.21;    6.965;  -11.360;34229.039; 0.00247; 0.00019
 897.77;  -16.035;  -39.360;34355.941; 0.00313; 0.00024
 898.34;  -19.735;  -35.160;34076.141; 0.00208; 0.00016
 898.90;    5.765;  -22.960;33978.840; 0.00389; 0.00029
 899.46;    1.465;  -22.260;34144.141; 0.00323; 0.00024
 900.02;   34.265;    5.240;33674.641; 0.00397; 0.00030
 900.58;   -5.035;  -25.260;33671.941; 0.00278; 0.00021
 901.14;   42.865;   11.740;33538.441; 0.00432; 0.00032
 901.70;    8.365;  -14.960;33275.141; 0.00325; 0.00025
 902.26;  -46.935;  -55.160;33006.840; 0.00116; 0.00009
 902.82;   29.365;   -4.560;33014.641; 0.00480; 0.00036
 903.38;  -29.335;  -45.360;32705.539; 0.00229; 0.00017
 903.94;   11.865;  -10.360;32674.340; 0.00320; 0.00024
 904.50;  -28.535;  -32.260;32451.039; 0.00054; 0.00004
 905.06;  -20.435;  -40.660;32229.039; 0.00294; 0.00022
 905.62;  -10.135;  -22.960;31916.439; 0.00188; 0.00014
 906.18;  -12.435;  -39.760;31805.539; 0.00403; 0.00031
 906.74;  -58.135;  -67.460;31546.039; 0.00139; 0.00011
 907.30;   31.165;   -3.160;31284.939; 0.00515; 0.00039
 907.86;    7.565;   -7.460;31088.240; 0.00227; 0.00017
 908.42;   31.465;   20.040;30928.240; 0.00173; 0.00013
 908.98;   25.265;    4.940;30791.240; 0.00312; 0.00024
 909.54;   -9.135;  -10.960;30862.939; 0.00028; 0.00002
 910.10;   29.465;    7.340;30640.740; 0.00342; 0.00026
 910.66;    4.265;  -22.660;30446.240; 0.00419; 0.00032
 911.22;    5.465;  -22.860;30321.141; 0.00443; 0.00034
 911.78;  -55.635;  -62.760;29941.939; 0.00113; 0.00009
 912.34;   17.465;    0.540;29914.439; 0.00269; 0.00020
 912.90;   28.865;    8.240;29777.039; 0.00330; 0.00025
 913.46;  -40.735;  -57.660;29485.039; 0.00273; 0.00021
 914.02;  -23.035;  -50.860;29482.439; 0.00450; 0.00034
 914.58;  -17.235;  -34.560;29279.641; 0.00281; 0.00021
 915.14;  -34.235;  -39.560;29122.939; 0.00087; 0.00007
 915.70;  -16.035;  -26.460;29026.539; 0.00172; 0.00013
 916.26;   12.665;  -11.060;28810.641; 0.00392; 0.00030
 916.82;  -38.835;  -53.760;28635.939; 0.00248; 0.00019
 917.38;   18.965;   -4.360;28403.039; 0.00390; 0.00030
 917.94;  125.265;   77.740;28214.240; 0.00801; 0.00061
 918.50;  -30.435;  -43.160;28052.641; 0.00215; 0.00017
 919.06;   15.165;  -12.660;27890.340; 0.00475; 0.00036
 919.62;  -31.835;  -44.260;27654.439; 0.00214; 0.00016
 920.18;    2.065;  -19.560;27634.840; 0.00372; 0.00029
 920.73;  -15.535;  -28.760;27550.340; 0.00229; 0.00018
 921.29;  -22.435;  -39.960;27017.641; 0.00307; 0.00024
 921.85;   16.765;  -19.360;27000.840; 0.00637; 0.00049
 922.41;  -34.935;  -48.960;26863.840; 0.00248; 0.00019
 922.97;  -15.335;  -28.260;26599.539; 0.00231; 0.00018
 923.53;   46.865;    6.840;26105.939; 0.00720; 0.00056
 924.09;   -7.635;  -39.960;26005.141; 0.00586; 0.00045
 924.65;  -27.135;  -44.460;25817.740; 0.00317; 0.00025
 925.21;  -21.935;  -38.360;25588.039; 0.00303; 0.00023
 925.76;  -28.835;  -37.160;25424.439; 0.00154; 0.00012
 926.32;    9.965;  -18.460;25229.539; 0.00530; 0.00041
 926.88;  -17.835;  -26.860;25060.340; 0.00169; 0.00013
 927.44;   -6.235;  -30.560;24711.039; 0.00462; 0.00036
 928.00;  154.465;  103.140;24361.641; 0.00983; 0.00076
 928.56;    9.765;  -24.160;24109.539; 0.00654; 0.00051
 929.12;  -12.735;  -22.460;23807.740; 0.00189; 0.00015
 929.67;   39.065;   11.240;23666.840; 0.00544; 0.00042
 930.23;  -27.935;  -44.060;23355.141; 0.00318; 0.00025
 930.79;    9.265;  -22.260;22957.439; 0.00630; 0.00049
 931.35;  -10.535;  -33.760;22612.039; 0.00468; 0.00036
 931.91;  -29.035;  -43.460;22275.939; 0.00294; 0.00023
 932.46;   15.565;  -17.460;21815.141; 0.00682; 0.00053
 933.02;  -30.235;  -44.760;21264.539; 0.00304; 0.00024
 933.58;  -33.935;  -48.760;20844.740; 0.00317; 0.00025
 934.14;  -48.635;  -75.860;20402.141; 0.00594; 0.00046
 934.70;  -43.135;  -52.060;19642.840; 0.00200; 0.00016
 935.25;  -11.835;  -32.560;19307.439; 0.00474; 0.00037
 935.81;   92.165;   46.540;18676.840; 0.01077; 0.00084
 936.37;  -29.635;  -41.860;17979.240; 0.00297; 0.00023
 936.93;   20.265;    4.940;17501.539; 0.00386; 0.00030
 937.49;   -6.935;  -33.060;16906.439; 0.00685; 0.00054
 938.04;  -13.135;  -27.860;16194.840; 0.00403; 0.00032
 938.60;  -35.235;  -49.460;15755.940; 0.00403; 0.00032
 939.16;  -26.435;  -41.560;15186.640; 0.00445; 0.00035
 939.72;  -54.335;  -45.660;14717.140;-0.00264;-0.00021
 940.27;   35.165;    5.340;14265.840; 0.00936; 0.00074
 940.83;  -15.735;  -30.960;14046.340; 0.00490; 0.00039
 941.39;   -5.435;  -21.960;13687.040; 0.00543; 0.00043
 941.94;  -51.935;  -74.960;13350.740; 0.00773; 0.00061
 942.50;  -14.035;  -32.560;13158.740; 0.00631; 0.00050
 943.06;    9.265;    5.340;13027.240; 0.00135; 0.00011
 943.62;   34.665;    9.540;12943.740; 0.00866; 0.00068
 944.17;   10.965;  -21.460;12754.540; 0.01126; 0.00089
 944.73;   63.765;   20.940;12761.440; 0.01485; 0.00117
 945.29;    8.365;  -10.860;12770.440; 0.00664; 0.00052
 945.84;  -38.435;  -58.560;12694.340; 0.00694; 0.00055
 946.40;  -44.935;  -63.660;12711.140; 0.00639; 0.00051
 946.96;   30.965;    1.240;12656.240; 0.01012; 0.00080
 947.52;  -24.835;  -40.660;12695.840; 0.00535; 0.00042
 948.07;  -16.935;  -35.260;12718.240; 0.00613; 0.00049
 948.63;   40.765;   21.340;12818.540; 0.00644; 0.00051
 949.19;  -13.835;  -30.760;12749.440; 0.00556; 0.00044
 949.74;  -69.435;  -80.460;12760.940; 0.00358; 0.00028
 950.30;   -2.035;  -30.260;12769.340; 0.00909; 0.00072
 950.85;   11.565;  -22.260;12864.940; 0.01081; 0.00086
 951.41;  -40.435;  -58.160;12893.340; 0.00561; 0.00045
 951.97;   30.865;    5.540;12921.640; 0.00792; 0.00063
 952.52;    4.665;  -11.260;12865.640; 0.00495; 0.00039
 953.08;   -9.435;  -37.660;12883.640; 0.00870; 0.00069
 953.64;    3.965;  -29.560;12846.440; 0.01025; 0.00082
 954.19;   40.365;   -1.760;12893.040; 0.01275; 0.00102
 954.75;   42.765;   10.140;12872.140; 0.00983; 0.00078
 955.31;   34.165;    8.440;12867.940; 0.00769; 0.00061
 955.86;  -28.135;  -51.160;12774.540; 0.00684; 0.00055
 956.42;  -11.535;  -47.560;12672.940; 0.01067; 0.00085
 956.97;  -33.235;  -60.260;12694.140; 0.00796; 0.00064
 957.53;    8.165;  -30.260;12611.240; 0.01134; 0.00091
 958.09;   11.065;  -20.760;12552.340; 0.00934; 0.00075
 958.64;   -2.235;  -20.260;12570.040; 0.00527; 0.00042
 959.20;    7.265;  -21.960;12548.940; 0.00849; 0.00068
 959.75;   -5.535;  -29.960;12427.440; 0.00712; 0.00057
 960.31;  -11.135;  -33.860;12418.840; 0.00659; 0.00053
 960.86;   72.465;   19.440;12464.640; 0.01534; 0.00123
 961.42;   -7.335;  -29.560;12414.340; 0.00644; 0.00052
 961.98;  -34.635;  -50.460;12345.240; 0.00459; 0.00037
 962.53;  -23.135;  -42.460;12397.740; 0.00561; 0.00045
 963.09;   56.865;   11.640;12366.040; 0.01308; 0.00105
 963.64;   23.665;    6.040;12375.340; 0.00510; 0.00041
 964.20;  -51.435;  -62.260;12267.840; 0.00314; 0.00025
 964.75;  -16.035;  -24.260;12291.440; 0.00239; 0.00019
 965.31;  -55.935;  -74.160;12248.040; 0.00531; 0.00043
 965.86;  -17.235;  -36.360;12229.140; 0.00557; 0.00045
 966.42;   49.965;   34.440;12234.340; 0.00455; 0.00037
 966.97;   43.065;    3.540;12259.840; 0.01155; 0.00093
 967.53;   -2.135;  -22.060;12095.440; 0.00587; 0.00047
 968.08;  -24.035;  -47.460;12157.440; 0.00690; 0.00056
 968.64;   31.565;   -7.160;12042.340; 0.01147; 0.00093
 969.19;   12.465;   -3.160;12075.540; 0.00464; 0.00038
 969.75;   29.165;   14.040;12006.840; 0.00448; 0.00036
 970.30;   13.265;   -8.460;12064.140; 0.00646; 0.00052
 970.86;   19.665;   -6.260;11971.840; 0.00774; 0.00063
 971.41;   13.765;  -25.960;11845.240; 0.01198; 0.00097
 971.97;    2.265;  -14.860;11835.640; 0.00516; 0.00042
 972.52;  -51.635;  -55.660;11665.740; 0.00122; 0.00010
 973.08;   38.265;   18.540;11714.240; 0.00602; 0.00049
 973.63;   81.665;   39.540;11663.040; 0.01288; 0.00105
 974.19;   13.365;   -9.060;11593.140; 0.00689; 0.00056
 974.74;    5.065;  -14.360;11666.640; 0.00600; 0.00049
 975.29;  302.065;  203.340;11620.240; 0.03061; 0.00250
 975.85;   65.965;   32.040;11558.040; 0.01056; 0.00086
 976.40;   45.565;    8.740;11484.040; 0.01159; 0.00095
 976.96;   27.765;    4.240;11406.940; 0.00744; 0.00061
 977.51;  -15.135;  -29.860;11398.840; 0.00467; 0.00038
 978.07;  -13.335;  -31.760;11290.240; 0.00588; 0.00048
 978.62;   28.665;    1.440;11281.240; 0.00876; 0.00072
 979.17;  398.065;  273.840;11228.340; 0.04011; 0.00328
 979.73;  -23.835;  -36.360;11150.440; 0.00408; 0.00033
 980.28;   42.865;    6.440;11178.640; 0.01189; 0.00097
 980.84;   18.365;    7.040;11049.840; 0.00373; 0.00031
 981.39;  -25.535;  -30.960;11067.040; 0.00180; 0.00015
 981.94;    9.465;    4.640;10985.940; 0.00161; 0.00013
 982.50;   21.765;  -14.560;10875.540; 0.01219; 0.00100
 983.05;   18.065;   -3.160;10793.640; 0.00717; 0.00059
 983.60;   84.265;   45.340;10866.340; 0.01320; 0.00109
 984.16;   42.865;   18.140;10723.040; 0.00849; 0.00070
 984.71;   20.765;    0.140;10737.640; 0.00710; 0.00058
 985.27;   -7.635;  -30.160;10610.940; 0.00786; 0.00065
 985.82;   28.865;    5.540;10600.940; 0.00817; 0.00067
 986.37;   46.265;   20.340;10579.940; 0.00917; 0.00076
 986.93;    3.865;   -7.560;10493.140; 0.00407; 0.00034
 987.48;  -18.335;  -38.060;10429.940; 0.00707; 0.00058
 988.03;    3.665;  -12.360;10433.640; 0.00578; 0.00048
 988.59;  -11.035;  -21.760;10379.140; 0.00388; 0.00032
 989.14;   19.565;   -6.160;10316.040; 0.00945; 0.00078
 989.69;   -7.035;  -20.160;10319.540; 0.00485; 0.00040
 990.24;   14.565;  -22.960;10192.540; 0.01402; 0.00116
 990.80;  -21.635;  -35.660;10144.240; 0.00529; 0.00044
 991.35;  -30.735;  -51.160;10015.240; 0.00776; 0.00064
 991.90;   26.565;    1.340;10114.540; 0.00961; 0.00080
 992.46;   -9.735;  -37.460;10020.740; 0.01069; 0.00089
 993.01;  -18.635;  -36.260; 9927.640; 0.00684; 0.00057
 993.56;  193.965;  119.940; 9917.940; 0.02903; 0.00241
 994.11;   12.665;  -11.460; 9840.440; 0.00955; 0.00079
 994.67;  -11.335;  -21.260; 9785.640; 0.00396; 0.00033
 995.22;  -10.935;  -30.460; 9703.340; 0.00787; 0.00065
 995.77;  -21.335;  -38.960; 9635.340; 0.00716; 0.00060
 996.33;    4.165;   -4.560; 9637.840; 0.00357; 0.00030
 996.88;  -19.835;  -27.760; 9517.540; 0.00326; 0.00027
 997.43;  -19.235;  -28.760; 9472.340; 0.00398; 0.00033
 997.98;   40.665;    3.140; 9370.640; 0.01584; 0.00132
 998.53;   33.965;   21.740; 9336.240; 0.00521; 0.00044
 999.09;   -3.235;  -30.660; 9233.940; 0.01182; 0.00099
 999.64;  -32.335;  -51.060; 9121.140; 0.00815; 0.00068
1000.19;  -17.735;  -44.160; 9086.640; 0.01161; 0.00097
1000.74;  -32.635;  -57.060; 9052.540; 0.01088; 0.00091
1001.30;  -18.635;  -19.160; 8993.240; 0.00024; 0.00002
1001.85;   -2.235;  -25.660; 8888.440; 0.01065; 0.00089
1002.40;  -32.735;  -49.260; 8808.140; 0.00763; 0.00064
1002.95;   31.265;    2.840; 8765.740; 0.01327; 0.00111
1003.50;   43.965;   15.340; 8714.040; 0.01361; 0.00114
1004.06;    8.865;  -28.160; 8593.740; 0.01793; 0.00150
1004.61;  178.765;  109.140; 8532.040; 0.03428; 0.00288
1005.16;  225.965;  142.040; 8522.340; 0.04181; 0.00351
1005.71;   32.865;   -2.660; 8537.740; 0.01789; 0.00150
1006.26;  -10.135;  -31.660; 8503.640; 0.01099; 0.00092
1006.81;  -51.435;  -57.860; 8549.940; 0.00330; 0.00028
1007.37;   12.965;  -12.460; 8518.340; 0.01321; 0.00111
1007.92;  -10.335;  -58.960; 8547.040; 0.02533; 0.00213
1008.47;   17.565;   -9.560; 8650.340; 0.01411; 0.00119
1009.02;   19.765;  -14.960; 8730.740; 0.01807; 0.00152
1009.57;   39.165;    5.940; 8770.540; 0.01711; 0.00144
1010.12;  -32.835;  -70.360; 8819.940; 0.01908; 0.00161
1010.67;   18.665;   -4.160; 8938.440; 0.01137; 0.00096
1011.22;   38.665;    5.640; 9023.540; 0.01609; 0.00136
1011.78;  -23.535;  -42.460; 9062.440; 0.00905; 0.00077
1012.33;  -26.435;  -45.560; 9068.940; 0.00899; 0.00076
1012.88;   65.865;   28.740; 9182.740; 0.01725; 0.00146
1013.43;   16.565;  -11.760; 9165.640; 0.01315; 0.00111
1013.98;   27.765;    6.840; 9256.140; 0.00972; 0.00082
1014.53;  -21.235;  -34.460; 9202.140; 0.00621; 0.00053
1015.08;  -28.235;  -44.660; 9159.840; 0.00782; 0.00066
1015.63;  -19.535;  -38.860; 9075.540; 0.00937; 0.00080
1016.18;  -28.935;  -49.160; 9064.740; 0.00997; 0.00085
1016.73;   26.365;    1.040; 8920.440; 0.01278; 0.00109
1017.28;  108.665;   59.040; 8837.240; 0.02552; 0.00217
1017.84;   -4.535;  -23.560; 8738.740; 0.00994; 0.00085
1018.39;    6.565;  -27.260; 8609.540; 0.01806; 0.00154
1018.94;  -12.135;  -47.760; 8503.540; 0.01934; 0.00165
1019.49;   51.565;   14.140; 8362.940; 0.02081; 0.00177
1020.04;   74.865;   26.240; 8286.340; 0.02752; 0.00235
1020.59;  -14.535;  -34.360; 8098.540; 0.01145; 0.00098
1021.14;   -0.735;  -19.960; 8089.340; 0.01128; 0.00096
1021.69;  -19.435;  -47.960; 7874.640; 0.01704; 0.00145
1022.24;    0.465;  -27.460; 7839.140; 0.01696; 0.00145
1022.79;   29.165;   11.940; 7670.040; 0.01063; 0.00091
1023.34;    0.965;  -24.560; 7596.740; 0.01601; 0.00137
1023.89;   11.565;  -12.960; 7513.240; 0.01570; 0.00134
1024.44;    9.765;  -15.060; 7382.240; 0.01611; 0.00138
1024.99;   42.865;    0.040; 7310.940; 0.02827; 0.00242
1025.54;   87.165;   33.840; 7213.140; 0.03566; 0.00306
1026.09;   -8.935;  -34.860; 7156.540; 0.01761; 0.00151
1026.64;  -35.835;  -36.260; 7033.140; 0.00029; 0.00003
1027.19;   29.265;    6.240; 6951.540; 0.01625; 0.00139
1027.74;   -9.035;  -25.360; 6898.540; 0.01165; 0.00100
1028.29;   -0.635;  -39.360; 6785.340; 0.02823; 0.00243
1028.84;  101.665;   41.840; 6689.140; 0.04425; 0.00380
1029.39;   32.665;    3.440; 6693.440; 0.02181; 0.00188
1029.94;  -13.535;  -45.260; 6563.140; 0.02416; 0.00208
1030.48;  -19.135;  -47.960; 6489.840; 0.02217; 0.00191
1031.03;  -16.735;  -33.460; 6408.040; 0.01318; 0.00114
1031.58;   13.765;   -4.360; 6390.940; 0.01446; 0.00125
1032.13;  -22.435;  -46.760; 6251.740; 0.01975; 0.00170
1032.68;   -8.335;  -40.060; 6173.540; 0.02619; 0.00226
1033.23;  -15.635;  -40.760; 6056.340; 0.02096; 0.00181
1033.78;   -7.835;  -34.060; 5982.840; 0.02226; 0.00192
1034.33;    9.465;  -18.960; 5956.340; 0.02448; 0.00212
1034.88;   56.365;   24.240; 5884.440; 0.02805; 0.00243
1035.43;  -14.135;  -43.260; 5797.040; 0.02589; 0.00224
1035.98;   -3.235;  -24.560; 5726.840; 0.01925; 0.00167
1036.52;   35.465;   -7.860; 5703.140; 0.03967; 0.00344
1037.07;   14.965;   12.340; 5634.340; 0.00244; 0.00021
1037.62;   27.065;   -7.260; 5538.840; 0.03239; 0.00281
1038.17;  132.965;   72.140; 5465.440; 0.05826; 0.00506
1038.72;   -7.035;  -21.960; 5419.540; 0.01454; 0.00126
1039.27;   -0.835;  -19.060; 5313.940; 0.01808; 0.00157
1039.82;   28.365;   -9.760; 5277.140; 0.03850; 0.00335
1040.37;  -32.535;  -47.360; 5173.340; 0.01518; 0.00132
1040.91;  -25.735;  -44.660; 5135.140; 0.01967; 0.00171
1041.46;   -8.835;  -29.060; 5014.240; 0.02143; 0.00187
1042.01;  -21.035;  -49.760; 4962.740; 0.03083; 0.00268
1042.56;   -6.935;  -31.860; 4871.240; 0.02727; 0.00238
1043.11;    8.665;   -9.360; 4860.340; 0.01996; 0.00174
1043.66;   62.365;   24.240; 4779.540; 0.04296; 0.00375
1044.20;   23.765;    2.340; 4738.440; 0.02458; 0.00215
1044.75;   47.865;   14.740; 4683.040; 0.03866; 0.00338
1045.30;   66.665;   24.540; 4585.740; 0.04993; 0.00436
1045.85;   -0.935;  -25.760; 4510.240; 0.02989; 0.00261
1046.40;  -13.935;  -35.760; 4447.940; 0.02676; 0.00234
1046.94;  -13.335;  -26.260; 4426.440; 0.01612; 0.00141
1047.49;   20.765;  -23.660; 4272.140; 0.05636; 0.00493
1048.04;   75.565;   37.540; 4311.640; 0.04872; 0.00427
1048.59;  -15.035;  -42.360; 4233.240; 0.03576; 0.00313
1049.13;  145.765;   81.140; 4211.040; 0.08601; 0.00754
1049.68;  -25.635;  -49.960; 4059.940; 0.03315; 0.00291
1050.23;   29.165;   -0.060; 4062.640; 0.04022; 0.00353
1050.78;  -29.935;  -55.560; 3990.540; 0.03583; 0.00315
1051.32;  -10.635;  -29.060; 3946.840; 0.02619; 0.00230
1051.87;  276.865;  172.040; 3869.840; 0.15205; 0.01337
1052.42;    4.965;  -12.460; 3825.340; 0.02570; 0.00226
1052.97;  238.365;  152.740; 3792.340; 0.12760; 0.01123
1053.51;   -1.535;  -20.360; 3734.840; 0.02856; 0.00252
1054.06;   55.565;   16.740; 3661.740; 0.05973; 0.00526
1054.61;   22.065;    5.140; 3613.040; 0.02661; 0.00235
1055.16;  -17.835;  -44.160; 3555.440; 0.04180; 0.00369
1055.70;    4.265;  -25.860; 3441.340; 0.04913; 0.00433
1056.25;  -39.235;  -59.060; 3388.740; 0.03293; 0.00291
1056.80;  -14.535;  -37.360; 3359.040; 0.03838; 0.00339
1057.34;  -17.635;  -46.760; 3323.340; 0.04976; 0.00440
1057.89;  -12.035;  -38.760; 3294.340; 0.04633; 0.00410
1058.44;   28.065;    3.040; 3243.440; 0.04403; 0.00389
1058.98;  -16.535;  -34.660; 3181.040; 0.03255; 0.00288
1059.53;   15.565;  -18.360; 3089.840; 0.06199; 0.00549
1060.08;    7.965;  -21.560; 3095.640; 0.05492; 0.00487
1060.62;  136.165;   80.440; 3037.940; 0.10492; 0.00930
1061.17;  -22.935;  -35.060; 2981.040; 0.02323; 0.00206
1061.72;    9.065;  -17.560; 2925.640; 0.05201; 0.00462
1062.26;   38.065;    0.640; 2887.140; 0.07444; 0.00661
1062.81;   32.365;    2.640; 2868.640; 0.06039; 0.00536
1063.36;   11.265;   -3.960; 2810.640; 0.03137; 0.00279
1063.90;   31.765;    2.840; 2776.140; 0.06082; 0.00541
1064.45;    4.565;  -15.760; 2733.940; 0.04346; 0.00387
1064.99;    5.465;  -21.260; 2665.640; 0.05824; 0.00518
1065.54;   -7.935;  -27.260; 2665.140; 0.04280; 0.00381
1066.09;   36.265;    1.540; 2624.740; 0.07831; 0.00698
1066.63;   20.165;   -4.460; 2613.240; 0.05626; 0.00502
1067.18;   94.765;   50.140; 2546.940; 0.10439; 0.00931
1067.72;   16.365;   -8.860; 2507.940; 0.05990; 0.00535
1068.27;    6.365;  -31.060; 2435.040; 0.09000; 0.00804
1068.82;   52.565;   24.740; 2427.340; 0.06813; 0.00609
1069.36;   20.765;   -1.560; 2384.540; 0.05553; 0.00496
1069.91;   -8.335;  -27.160; 2395.540; 0.04731; 0.00423
1070.45;   16.865;   -9.660; 2355.540; 0.06792; 0.00608
1071.00;  -20.835;  -43.760; 2277.640; 0.05944; 0.00532
1071.54;   16.465;  -14.260; 2266.040; 0.08109; 0.00726
1072.09;   95.565;   61.540; 2286.540; 0.09128; 0.00818
1072.64;   17.165;   -2.360; 2225.240; 0.05334; 0.00478
1073.18;  142.165;   75.840; 2212.340; 0.18260; 0.01638
1073.73;  183.965;  126.340; 2142.340; 0.16153; 0.01450
1074.27;   10.165;  -35.860; 2113.340; 0.13018; 0.01169
1074.82;   61.565;    9.440; 2108.140; 0.15000; 0.01347
1075.36;   49.665;    9.140; 2087.140; 0.11855; 0.01066
1075.91;   29.365;    4.140; 2074.740; 0.07481; 0.00673
1076.45;   29.065;   13.340; 2031.240; 0.04719; 0.00425
1077.00;   17.465;  -14.560; 1990.740; 0.09751; 0.00878
1077.54;   41.565;   19.840; 2002.540; 0.06723; 0.00605
1078.09;   34.765;   22.840; 1946.540; 0.03728; 0.00336
1078.63;   -4.435;  -33.660; 1925.340; 0.09268; 0.00836
1079.18;    9.365;  -25.660; 1902.340; 0.11298; 0.01019
1079.72;   51.165;    8.540; 1872.140; 0.13906; 0.01255
1080.27;   -4.735;  -28.260; 1833.740; 0.07802; 0.00704
1080.81;   14.465;  -27.660; 1806.540; 0.14143; 0.01278
1081.36;  -17.535;  -49.360; 1759.940; 0.10870; 0.00982
1081.90;   89.765;   47.640; 1773.640; 0.14570; 0.01317
1082.44;   75.165;   23.340; 1742.540; 0.18246; 0.01651
1082.99;   45.065;   14.540; 1720.040; 0.10871; 0.00984
1083.53;   16.865;  -15.760; 1669.840; 0.11804; 0.01069
1084.08;   57.965;   12.140; 1694.940; 0.16791; 0.01521
1084.62;   26.265;   11.540; 1650.140; 0.05492; 0.00498
1085.17;   36.165;   -6.960; 1644.640; 0.16155; 0.01465
1085.71;    2.265;  -16.460; 1604.940; 0.07125; 0.00647
1086.25;   45.865;   13.040; 1614.040; 0.12705; 0.01153
1086.80;   46.865;   10.940; 1558.740; 0.14161; 0.01286
1087.34;   20.165;    0.740; 1549.140; 0.07731; 0.00703
1087.89;    4.065;  -21.460; 1518.340; 0.10304; 0.00937
1088.43;   31.765;   12.440; 1515.840; 0.07902; 0.00719
1088.97;   28.065;    3.040; 1494.940; 0.10386; 0.00945
1089.52;  251.665;  167.440; 1492.140; 0.35474; 0.03230
1090.06;  120.565;   65.840; 1451.240; 0.23330; 0.02126
1090.61;   29.165;    6.040; 1435.740; 0.10050; 0.00916
1091.15;  208.665;  140.040; 1394.140; 0.30306; 0.02764
1091.69;   48.465;   17.840; 1365.740; 0.13724; 0.01252
1092.24;   31.565;    9.140; 1368.940; 0.10199; 0.00931
1092.78;   57.765;   28.540; 1337.940; 0.13552; 0.01238
1093.32;   43.365;   11.840; 1350.740; 0.14606; 0.01335
1093.87;   52.165;   16.840; 1327.440; 0.16761; 0.01532
1094.41;   27.365;  -11.260; 1272.140; 0.18564; 0.01698
1094.95;  179.865;  110.440; 1282.440; 0.33727; 0.03087
1095.50;   -4.635;  -27.860; 1250.140; 0.11541; 0.01057
1096.04;   60.665;   45.340; 1268.140; 0.07670; 0.00703
1096.58;  189.265;  134.540; 1217.440; 0.27797; 0.02548
1097.13;   -8.035;  -25.860; 1182.740; 0.09161; 0.00840
1097.67;   88.165;   49.940; 1204.340; 0.19998; 0.01835
1098.21;    9.265;  -16.960; 1162.040; 0.13889; 0.01275
1098.76;   26.165;   -2.160; 1142.840; 0.15220; 0.01398
1099.30;   30.365;  -14.060; 1130.140; 0.24113; 0.02215
1099.84;    0.065;  -25.760; 1116.240; 0.14255; 0.01310
1100.38;   72.165;   25.840; 1094.240; 0.25892; 0.02381

