
Integration time [ms]: 500.000
Averaging Nr. [scans]: 10
Smoothing Nr. [pixels]: 0
Data measured with spectrometer [name]: 1901096U1
Wave   ;Sample   ;Dark     ;Reference;Absolute Irradiance  ;Photon Counts
[nm]   ;[counts] ;[counts] ;[counts] ;[µWatt/cm?/nm]       ;[µMol/s/m?/nm]

 155.82;  216.682;  220.336;   69.357; 0.00000; 0.00000
 156.42;  258.996;  239.240;   98.706; 0.00000; 0.00000
 157.03;  249.697;  223.041;   92.018; 0.00000; 0.00000
 157.63;  207.394;  212.140;   78.786; 0.00000; 0.00000
 158.23;  242.093;  215.440;   94.680; 0.00000; 0.00000
 158.84;  239.402;  233.042;  119.574; 0.00000; 0.00000
 159.44;  231.491;  229.939;   82.550; 0.00000; 0.00000
 160.04;  250.587;  233.638;  102.110; 0.00000; 0.00000
 160.64;  310.990;  291.439;   93.044; 0.00000; 0.00000
 161.25;  247.197;  242.041;  112.923; 0.00000; 0.00000
 161.85;  273.093;  250.139;  109.378; 0.00000; 0.00000
 162.45;  246.487;  214.738;   90.607; 0.00000; 0.00000
 163.06;  285.090;  268.439;   94.943; 0.00000; 0.00000
 163.66;  276.499;  254.041;   96.745; 0.00000; 0.00000
 164.26;  233.579;  228.235;   70.019; 0.00000; 0.00000
 164.86;  234.381;  223.836;  112.245; 0.00000; 0.00000
 165.47;  247.273;  222.006;  144.771; 0.00000; 0.00000
 166.07;  239.968;  227.405;  171.417; 0.00000; 0.00000
 166.67;  241.666;  221.004;  157.886; 0.00000; 0.00000
 167.27;  259.571;  227.505;  165.443; 0.00000; 0.00000
 167.88;  276.265;  243.204;  176.084; 0.00000; 0.00000
 168.48;  299.759;  270.602;  149.416; 0.00000; 0.00000
 169.08;  280.364;  255.003;  149.165; 0.00000; 0.00000
 169.68;  268.378;  266.507;  196.226; 0.00000; 0.00000
 170.29;  308.559;  279.502;  174.114; 0.00000; 0.00000
 170.89;  266.265;  246.104;  182.177; 0.00000; 0.00000
 171.49;  287.864;  267.103;  158.870; 0.00000; 0.00000
 172.09;  265.066;  243.304;  197.793; 0.00000; 0.00000
 172.70;  269.453;  241.700;  178.950; 0.00000; 0.00000
 173.30;  348.259;  312.302;  192.313; 0.00000; 0.00000
 173.90;  234.148;  227.899;  149.290; 0.00000; 0.00000
 174.50;  397.253;  342.200;  169.250; 0.00000; 0.00000
 175.11;  333.057;  290.801;  178.397; 0.00000; 0.00000
 175.71;  236.069;  202.005;  163.326; 0.00000; 0.00000
 176.31;  240.668;  201.904;  157.407; 0.00000; 0.00000
 176.91;  259.156;  218.401;  166.476; 0.00000; 0.00000
 177.51;  252.852;  227.000;  169.037; 0.00000; 0.00000
 178.12;  330.655;  302.301;  189.172; 0.00000; 0.00000
 178.72;  296.863;  269.103;  188.859; 0.00000; 0.00000
 179.32;  306.856;  283.101;  182.185; 0.00000; 0.00000
 179.92;  247.556;  227.101;  182.480; 0.00000; 0.00000
 180.52;  382.669;  333.605;  194.824; 0.00000; 0.00000
 181.13;  287.848;  252.699;  169.191; 0.00000; 0.00000
 181.73;  239.260;  213.902;  204.825; 0.00000; 0.00000
 182.33;  273.548;  243.799;  191.492; 0.00000; 0.00000
 182.93;  251.250;  233.800;  210.121; 0.00000; 0.00000
 183.54;  214.541;  182.997;  146.515; 0.00000; 0.00000
 184.14;  241.861;  204.202;  159.832; 0.00000; 0.00000
 184.74;  321.660;  274.302;  211.228; 0.00000; 0.00000
 185.34;  256.670;  224.105;  232.734; 0.13313; 0.00206
 185.94;  291.749;  259.299;  205.003; 0.16057; 0.00250
 186.54;  243.362;  238.903;  234.146; 0.02000; 0.00031
 187.15;  206.255;  203.901;  218.473; 0.01134; 0.00018
 187.75;  338.373;  294.206;  238.667; 0.13320; 0.00209
 188.35;  310.349;  278.399;  236.604; 0.12564; 0.00198
 188.95;  233.665;  208.004;  223.885; 0.08408; 0.00133
 189.55;  210.152;  171.400;  204.335; 0.14732; 0.00233
 190.16;  297.253;  253.900;  250.453; 0.16749; 0.00266
 190.76;  215.746;  196.298;  231.976; 0.06912; 0.00110
 191.36;  291.349;  260.299;  258.608; 0.10704; 0.00171
 191.96;  237.861;  216.002;  282.334; 0.05894; 0.00095
 192.56;  239.150;  216.599;  277.413; 0.06404; 0.00103
 193.16;  260.046;  222.298;  299.568; 0.11629; 0.00188
 193.77;  299.137;  280.796;  305.671; 0.06661; 0.00108
 194.37;  230.357;  198.501;  293.691; 0.08382; 0.00136
 194.97;  191.850;  197.299;  303.214;-0.01398;-0.00023
 195.57;  217.465;  200.904;  323.385; 0.03110; 0.00051
 196.17;  266.135;  239.195;  329.855; 0.09890; 0.00162
 196.77;  220.051;  201.800;  362.624; 0.04462; 0.00073
 197.38;  223.049;  209.299;  385.309; 0.03220; 0.00053
 197.98;  294.941;  255.797;  391.422; 0.10573; 0.00175
 198.58;  245.260;  235.002;  441.930; 0.02085; 0.00035
 199.18;  219.058;  185.202;  429.902; 0.06806; 0.00113
 199.78;  334.437;  269.496;  456.870; 0.22346; 0.00373
 200.38;  269.153;  239.300;  499.846; 0.06275; 0.00105
 200.98;  199.356;  178.001;  502.986; 0.03762; 0.00063
 201.59;  262.781;  215.408;  611.653; 0.06046; 0.00102
 202.19;  215.571;  224.805;  605.646;-0.01335;-0.00023
 202.79;  220.353;  197.500;  587.448; 0.04451; 0.00075
 203.39;  189.456;  161.601;  644.186; 0.05234; 0.00089
 203.99;  221.062;  222.003;  740.949;-0.00144;-0.00002
 204.59;  252.759;  222.002;  733.510; 0.05130; 0.00088
 205.19;  221.348;  216.999;  796.291; 0.00992; 0.00017
 205.79;  234.360;  207.602;  825.824; 0.04420; 0.00076
 206.40;  205.457;  198.301;  875.395; 0.01215; 0.00021
 207.00;  263.261;  228.303;  907.041; 0.05507; 0.00095
 207.60;  218.157;  190.601;  928.798; 0.04527; 0.00079
 208.20;  211.172;  203.105; 1019.353; 0.01024; 0.00018
 208.80;  202.074;  193.206; 1029.973; 0.01110; 0.00019
 209.40;  234.383;  199.209; 1141.880; 0.03711; 0.00065
 210.00;  225.359;  202.402; 1124.417; 0.03266; 0.00057
 210.60;  213.365;  201.703; 1170.175; 0.01495; 0.00026
 211.20;  304.963;  273.303; 1254.557; 0.04081; 0.00072
 211.81;  190.362;  153.303; 1237.652; 0.04730; 0.00084
 212.41;  210.977;  190.407; 1355.714; 0.02010; 0.00036
 213.01;  216.887;  189.210; 1400.416; 0.02276; 0.00041
 213.61;  203.469;  172.005; 1399.523; 0.03220; 0.00057
 214.21;  186.074;  181.706; 1517.477; 0.00402; 0.00007
 214.81;  216.479;  185.208; 1599.136; 0.02564; 0.00046
 215.41;  232.773;  224.406; 1677.966; 0.00792; 0.00014
 216.01;  264.572;  255.406; 1747.260; 0.00811; 0.00015
 216.61;  241.649;  220.499; 1794.906; 0.02868; 0.00052
 217.21;  239.684;  218.909; 1900.484; 0.01427; 0.00026
 217.81;  194.789;  167.410; 1966.536; 0.01604; 0.00029
 218.41;  212.881;  187.108; 2070.058; 0.01719; 0.00031
 219.02;  188.689;  188.510; 2134.247; 0.00010; 0.00000
 219.62;  217.476;  209.407; 2229.697; 0.00534; 0.00010
 220.22;  234.476;  200.407; 2296.000; 0.02091; 0.00038
 220.82;  200.384;  178.909; 2396.090; 0.01105; 0.00020
 221.42;  214.287;  197.310; 2534.516; 0.00800; 0.00015
 222.02;  184.583;  170.809; 2602.876; 0.00651; 0.00012
 222.62;  164.382;  160.508; 2644.667; 0.00181; 0.00003
 223.22;  198.181;  179.408; 2747.058; 0.00966; 0.00018
 223.82;  193.082;  180.408; 2851.961; 0.00607; 0.00011
 224.42;  236.779;  216.608; 2979.536; 0.00897; 0.00017
 225.02;  213.981;  189.208; 3070.857; 0.01013; 0.00019
 225.62;  198.595;  170.212; 3154.212; 0.00924; 0.00017
 226.22;  210.887;  190.210; 3251.918; 0.00773; 0.00015
 226.82;  227.284;  178.409; 3374.683; 0.02010; 0.00038
 227.42;  209.869;  191.205; 3459.925; 0.00952; 0.00018
 228.02;  232.171;  208.305; 3557.146; 0.01070; 0.00020
 228.62;  158.488;  137.910; 3720.333; 0.00739; 0.00014
 229.22;  265.091;  235.611; 3822.360; 0.00924; 0.00018
 229.82;  198.758;  177.202; 3910.707; 0.01248; 0.00024
 230.43;  211.485;  202.209; 4060.498; 0.00305; 0.00006
 231.03;  190.772;  170.305; 4165.853; 0.00810; 0.00016
 231.63;  192.170;  166.305; 4299.932; 0.01015; 0.00020
 232.23;  193.975;  184.506; 4439.690; 0.00339; 0.00007
 232.83;  192.477;  186.107; 4570.914; 0.00208; 0.00004
 233.43;  225.179;  198.208; 4679.232; 0.00844; 0.00016
 234.03;  196.480;  174.508; 4822.739; 0.00628; 0.00012
 234.63;  155.587;  146.210; 4963.625; 0.00233; 0.00005
 235.23;  212.885;  189.309; 5087.302; 0.00586; 0.00012
 235.83;  194.574;  175.706; 5158.578; 0.00563; 0.00011
 236.43;  221.463;  189.403; 5238.061; 0.01102; 0.00022
 237.03;  197.273;  175.506; 5367.267; 0.00628; 0.00012
 237.63;  316.377;  255.007; 5476.106; 0.01557; 0.00031
 238.23;  180.185;  178.109; 5557.100; 0.00046; 0.00001
 238.83;  195.086;  163.509; 5587.205; 0.00708; 0.00014
 239.43;  197.070;  173.305; 5669.235; 0.00665; 0.00013
 240.03;  210.684;  188.909; 5684.486; 0.00503; 0.00010
 240.63;  182.695;  169.912; 5805.009; 0.00233; 0.00005
 241.23;  240.676;  210.407; 5803.599; 0.00731; 0.00015
 241.83;  189.984;  170.609; 5757.283; 0.00425; 0.00009
 242.43;  198.578;  188.907; 5830.420; 0.00240; 0.00005
 243.03;  193.185;  175.209; 5665.396; 0.00356; 0.00007
 243.63;  183.579;  161.208; 5769.037; 0.00459; 0.00009
 244.23;  181.669;  154.805; 5796.819; 0.00773; 0.00016
 244.83;  168.581;  150.808; 5806.754; 0.00379; 0.00008
 245.43;  221.068;  189.204; 5823.208; 0.00808; 0.00017
 246.02;  395.275;  345.506; 5800.188; 0.01111; 0.00023
 246.62;  205.569;  176.605; 5811.522; 0.00788; 0.00016
 247.22;  168.288;  152.710; 5818.533; 0.00284; 0.00006
 247.82;  211.286;  205.209; 5941.708; 0.00109; 0.00002
 248.42;  335.678;  264.607; 5924.620; 0.01451; 0.00030
 249.02;  224.282;  199.908; 5931.763; 0.00465; 0.00010
 249.62;  188.291;  169.111; 5978.860; 0.00318; 0.00007
 250.22;  273.188;  228.510; 6035.626; 0.00771; 0.00016
 250.82;  220.179;  196.608; 6063.934; 0.00465; 0.00010
 251.42;  224.493;  197.211; 6166.982; 0.00414; 0.00009
 252.02;  155.179;  148.708; 6146.432; 0.00120; 0.00003
 252.62;  198.500;  173.413; 6316.257; 0.00331; 0.00007
 253.22;  262.876;  225.507; 6362.600; 0.00696; 0.00015
 253.82;  173.389;  144.310; 6451.444; 0.00495; 0.00010
 254.42;  173.983;  168.609; 6595.581; 0.00095; 0.00002
 255.02;  209.890;  184.211; 6709.758; 0.00346; 0.00007
 255.62;  163.288;  144.710; 6866.335; 0.00268; 0.00006
 256.22;  332.476;  273.107; 6997.500; 0.01084; 0.00023
 256.82;  184.975;  163.506; 7151.784; 0.00364; 0.00008
 257.41;  166.491;  158.811; 7263.866; 0.00100; 0.00002
 258.01;  190.981;  153.908; 7368.656; 0.00550; 0.00012
 258.61;  233.088;  207.910; 7537.434; 0.00317; 0.00007
 259.21;  186.977;  158.207; 7585.914; 0.00429; 0.00009
 259.81;  236.977;  197.507; 7627.906; 0.00597; 0.00013
 260.41;  329.577;  275.007; 7729.113; 0.00783; 0.00017
 261.01;  146.195;  136.212; 7804.604; 0.00108; 0.00002
 261.61;  179.893;  159.711; 7874.186; 0.00208; 0.00005
 262.21;  164.973;  159.106; 7809.864; 0.00083; 0.00002
 262.81;  158.175;  140.007; 7883.093; 0.00238; 0.00005
 263.41;  191.291;  151.011; 7851.264; 0.00426; 0.00009
 264.00;  442.494;  360.812; 7910.396; 0.00770; 0.00017
 264.60;  198.388;  178.010; 7832.833; 0.00208; 0.00005
 265.20;  158.185;  141.709; 7811.800; 0.00180; 0.00004
 265.80;  172.884;  170.309; 7807.390; 0.00026; 0.00001
 266.40;  196.775;  171.206; 7758.985; 0.00321; 0.00007
 267.00;  240.184;  211.909; 7744.586; 0.00296; 0.00007
 267.60;  199.889;  181.510; 7713.844; 0.00164; 0.00004
 268.20;  231.788;  192.610; 7658.534; 0.00322; 0.00007
 268.80;  161.088;  134.910; 7613.828; 0.00216; 0.00005
 269.39;  219.666;  199.004; 7639.694; 0.00240; 0.00005
 269.99;  150.280;  151.208; 7545.848;-0.00008; 0.00000
 270.59;  196.784;  168.409; 7557.185; 0.00229; 0.00005
 271.19;  175.280;  153.308; 7463.747; 0.00167; 0.00004
 271.79;  211.478;  175.907; 7430.716; 0.00260; 0.00006
 272.39;  172.878;  163.307; 7390.417; 0.00063; 0.00001
 272.99;  177.367;  150.304; 7366.798; 0.00203; 0.00005
 273.59;  171.464;  146.003; 7394.867; 0.00180; 0.00004
 274.18;  200.569;  171.305; 7372.027; 0.00175; 0.00004
 274.78;  175.862;  165.703; 7463.749; 0.00062; 0.00001
 275.38;  446.145;  361.998; 7541.064; 0.00585; 0.00013
 275.98;  178.135;  158.695; 7555.049; 0.00131; 0.00003
 276.58;  192.127;  172.593; 7679.967; 0.00131; 0.00003
 277.18;  185.838;  140.996; 7761.887; 0.00217; 0.00005
 277.78;  207.121;  168.891; 7885.197; 0.00205; 0.00005
 278.37;  161.004;  144.387; 8094.415; 0.00087; 0.00002
 278.97;  184.515;  161.590; 8236.837; 0.00089; 0.00002
 279.57;  184.494;  162.284; 8401.201; 0.00091; 0.00002
 280.17;  170.091;  139.283; 8585.075; 0.00116; 0.00003
 280.77;  186.283;  170.081; 8739.990; 0.00061; 0.00001
 281.37;  191.882;  178.680; 8921.174; 0.00046; 0.00001
 281.96;  190.754;  174.472; 9108.466; 0.00065; 0.00002
 282.56;  194.064;  173.175; 9270.274; 0.00071; 0.00002
 283.16;  215.749;  179.071; 9355.810; 0.00137; 0.00003
 283.76;  158.548;  139.371; 9505.805; 0.00063; 0.00002
 284.36;  345.435;  274.567; 9628.166; 0.00256; 0.00006
 284.95;  184.012;  159.561; 9802.511; 0.00108; 0.00003
 285.55;  206.125;  171.965; 9973.057; 0.00127; 0.00003
 286.15;  185.535;  174.867;10153.664; 0.00035; 0.00001
 286.75;  221.009;  205.160;10252.877; 0.00067; 0.00002
 287.35;  168.115;  142.062;10345.749; 0.00103; 0.00002
 287.94;  164.724;  117.664;10437.340; 0.00178; 0.00004
 288.54;  163.721;  144.863;10563.308; 0.00075; 0.00002
 289.14;  155.620;  139.663;10625.296; 0.00068; 0.00002
 289.74;  176.924;  148.364;10698.339; 0.00125; 0.00003
 290.34;  175.947;  159.671;10794.693; 0.00057; 0.00001
 290.93;  162.439;  143.468;10889.406; 0.00076; 0.00002
 291.53;  161.745;  151.470;10882.075; 0.00040; 0.00001
 292.13;  139.741;  135.669;10986.727; 0.00017; 0.00000
 292.73;  194.030;  170.066;10956.902; 0.00119; 0.00003
 293.33;  152.349;  120.771;10919.612; 0.00135; 0.00003
 293.92;  152.854;  140.573;10969.773; 0.00052; 0.00001
 294.52;  143.660;  127.074;10992.032; 0.00068; 0.00002
 295.12;  169.154;  145.273;10934.672; 0.00108; 0.00003
 295.72;  161.253;  125.172;10815.554; 0.00171; 0.00004
 296.31;  231.568;  188.876;10904.618; 0.00181; 0.00004
 296.91;  223.047;  192.771;10752.392; 0.00162; 0.00004
 297.51;  201.463;  161.875;10565.563; 0.00179; 0.00004
 298.11;  400.563;  338.175;10514.872; 0.00264; 0.00007
 298.70;  184.452;  142.872;10425.745; 0.00188; 0.00005
 299.30;  132.915;  120.561;10340.539; 0.00072; 0.00002
 299.90;  183.402;  166.258;10399.297; 0.00095; 0.00002
 300.50;  231.223;  191.364;10320.936; 0.00201; 0.00005
 301.09;  157.622;  125.663;10404.916; 0.00197; 0.00005
 301.69;  172.737;  145.168;10530.383; 0.00144; 0.00004
 302.29;  153.124;  130.664;10625.238; 0.00144; 0.00004
 302.89;  160.229;  132.366;10712.996; 0.00177; 0.00004
 303.48;  203.218;  196.462;10883.577; 0.00053; 0.00001
 304.08;  153.447;  143.871;11034.496; 0.00074; 0.00002
 304.68;  182.832;  148.966;11199.933; 0.00320; 0.00008
 305.28;  170.833;  157.467;11331.138; 0.00134; 0.00003
 305.87;  133.849;  121.071;11557.216; 0.00112; 0.00003
 306.47;  158.039;  118.968;11629.007; 0.00380; 0.00010
 307.07;  198.952;  157.372;11817.946; 0.00366; 0.00009
 307.67;  193.664;  156.475;12043.183; 0.00304; 0.00008
 308.26;  174.653;  143.772;12135.263; 0.00276; 0.00007
 308.86;  192.627;  167.665;12308.970; 0.00269; 0.00007
 309.46;  162.753;  137.072;12516.957; 0.00228; 0.00006
 310.05;  150.936;  141.167;12737.271; 0.00102; 0.00003
 310.65;  184.472;  158.578;12857.363; 0.00216; 0.00006
 311.25;  212.247;  160.371;12935.298; 0.00490; 0.00013
 311.85;  199.238;  156.568;13145.596; 0.00441; 0.00011
 312.44;  182.740;  149.168;13347.612; 0.00333; 0.00009
 313.04;  162.348;  136.371;13485.708; 0.00245; 0.00006
 313.64;  177.637;  149.968;13620.981; 0.00296; 0.00008
 314.23;  195.345;  160.970;13715.076; 0.00333; 0.00009
 314.83;  462.141;  384.969;13936.025; 0.00808; 0.00021
 315.43;  153.928;  127.165;13967.090; 0.00299; 0.00008
 316.02;  201.460;  176.974;14040.930; 0.00221; 0.00006
 316.62;  180.744;  147.370;14125.363; 0.00330; 0.00009
 317.22;  184.151;  160.472;14245.032; 0.00223; 0.00006
 317.81;  148.453;  137.272;14233.762; 0.00107; 0.00003
 318.41;  169.457;  144.273;14263.897; 0.00235; 0.00006
 319.01;  167.639;  140.268;14427.401; 0.00279; 0.00007
 319.60;  196.643;  175.869;14388.747; 0.00202; 0.00005
 320.20;  148.747;  124.570;14258.389; 0.00239; 0.00006
 320.80;  182.042;  149.269;14334.539; 0.00337; 0.00009
 321.39;  159.643;  149.269;14417.251; 0.00106; 0.00003
 321.99;  173.740;  145.369;14396.221; 0.00298; 0.00008
 322.59;  241.754;  198.472;14327.565; 0.00418; 0.00011
 323.18;  165.151;  138.872;14288.034; 0.00264; 0.00007
 323.78;  192.459;  156.574;14312.623; 0.00332; 0.00009
 324.38;  154.944;  136.770;14236.162; 0.00185; 0.00005
 324.97;  154.356;  131.673;14253.394; 0.00216; 0.00006
 325.57;  201.744;  153.870;14167.559; 0.00491; 0.00013
 326.17;  218.562;  164.075;14160.352; 0.00505; 0.00014
 326.76;  184.248;  151.871;14123.806; 0.00324; 0.00009
 327.36;  218.653;  170.672;14073.860; 0.00445; 0.00012
 327.95;  146.459;  126.274;13930.123; 0.00176; 0.00005
 328.55;  157.359;  132.874;13852.519; 0.00211; 0.00006
 329.15;  408.939;  326.868;13731.407; 0.00770; 0.00021
 329.74;  141.672;  131.678;13598.370; 0.00079; 0.00002
 330.34;  161.265;  151.176;13577.890; 0.00077; 0.00002
 330.94;  205.234;  163.167;13380.550; 0.00372; 0.00010
 331.53;  159.139;  144.968;13220.110; 0.00120; 0.00003
 332.13;  146.359;  114.274;13089.027; 0.00268; 0.00007
 332.72;  315.459;  237.274;12940.220; 0.00684; 0.00019
 333.32;  160.967;  140.176;12869.816; 0.00183; 0.00005
 333.92;  139.273;  123.678;12706.579; 0.00129; 0.00004
 334.51;  147.470;  121.477;12609.342; 0.00226; 0.00006
 335.11;  189.066;  147.876;12467.899; 0.00364; 0.00010
 335.70;  156.978;  132.879;12368.236; 0.00193; 0.00005
 336.30;  211.401;  174.086;12332.478; 0.00270; 0.00008
 336.90;  206.982;  153.880;12252.377; 0.00405; 0.00011
 337.49;  149.080;  121.780;12294.456; 0.00202; 0.00006
 338.09;  193.081;  150.080;12364.864; 0.00311; 0.00009
 338.68;  222.202;  159.586;12237.490; 0.00405; 0.00011
 339.28;  191.899;  133.585;12302.356; 0.00379; 0.00011
 339.88;  200.406;  153.887;12390.342; 0.00296; 0.00008
 340.47;  229.602;  177.686;12416.990; 0.00335; 0.00010
 341.07;  202.201;  169.486;12531.981; 0.00208; 0.00006
 341.66;  180.408;  109.888;12623.655; 0.00430; 0.00012
 342.26;  215.998;  132.885;12797.052; 0.00517; 0.00015
 342.85;  219.504;  148.086;12937.109; 0.00412; 0.00012
 343.45;  214.022;  127.392;12984.911; 0.00463; 0.00013
 344.05;  269.587;  157.382;13082.432; 0.00608; 0.00017
 344.64;  271.342;  156.969;13194.041; 0.00581; 0.00017
 345.24;  255.657;  119.945;13265.813; 0.00672; 0.00019
 345.83;  315.903;  163.730;13312.418; 0.00759; 0.00022
 346.43;  302.144;  115.042;13468.470; 0.00791; 0.00023
 347.02;  398.854;  183.844;13572.576; 0.00884; 0.00026
 347.62;  319.171;   84.249;13379.367; 0.00931; 0.00027
 348.21;  453.058;  151.546;13533.522; 0.01203; 0.00035
 348.81;  529.460;  181.646;13381.845; 0.01340; 0.00039
 349.41;  557.676;  148.051;13369.417; 0.01554; 0.00045
 350.00;  613.470;  126.049;13470.448; 0.01916; 0.00056
 350.60;  670.866;  126.948;13588.306; 0.02140; 0.00063
 351.19;  814.063;  152.847;13759.078; 0.02533; 0.00074
 351.79;  904.572;  173.150;13840.276; 0.02580; 0.00076
 352.38;  981.976;  111.051;13938.916; 0.02933; 0.00086
 352.98; 1135.041;  141.641;13979.839; 0.03434; 0.00101
 353.57; 1267.118;  135.134;14008.884; 0.03769; 0.00111
 354.17; 1358.024;  100.336;14067.448; 0.03944; 0.00117
 354.76; 1558.099;  155.229;14095.882; 0.04281; 0.00127
 355.36; 1630.070;  135.021;14156.360; 0.04490; 0.00133
 355.95; 1739.731;   93.010;14214.335; 0.04807; 0.00143
 356.55; 1871.397;  103.101;14229.371; 0.05042; 0.00150
 357.14; 1997.360;  121.490;14325.365; 0.05112; 0.00153
 357.74; 2070.431;  132.882;14177.550; 0.05178; 0.00155
 358.33; 2105.282;  137.768;14059.315; 0.05201; 0.00156
 358.93; 2115.724;  136.352;13923.782; 0.05280; 0.00158
 359.52; 2131.693;  114.643;13798.344; 0.05156; 0.00155
 360.12; 2141.950;  116.631;13719.972; 0.05166; 0.00155
 360.71; 2112.948;  136.431;13707.554; 0.04917; 0.00148
 361.31; 2124.431;  157.026;13621.268; 0.04807; 0.00145
 361.90; 2303.710;  322.920;13507.738; 0.04893; 0.00148
 362.50; 2006.388;  143.914;13484.098; 0.04715; 0.00143
 363.09; 1937.896;  124.816;13341.582; 0.04629; 0.00140
 363.69; 1901.727;  123.025;13261.120; 0.04644; 0.00141
 364.28; 1857.768;  131.937;13269.773; 0.04585; 0.00140
 364.88; 1963.086;  189.041;13351.165; 0.04928; 0.00150
 365.47; 1913.524;  148.852;13342.885; 0.04785; 0.00146
 366.06; 1845.858;  123.162;13257.149; 0.04748; 0.00145
 366.66; 1883.473;  131.966;13117.317; 0.04924; 0.00151
 367.25; 1870.381;  149.468;13006.099; 0.04838; 0.00149
 367.85; 1850.000;  118.174;12998.112; 0.04725; 0.00145
 368.44; 1939.673;  195.066;12809.111; 0.04785; 0.00147
 369.04; 1868.045;  138.258;12658.104; 0.04782; 0.00147
 369.63; 1834.628;  155.053;12538.629; 0.04593; 0.00142
 370.23; 1785.009;  130.248;12507.819; 0.04577; 0.00142
 370.82; 1756.982;  127.040;12275.616; 0.04679; 0.00145
 371.41; 1677.797;  118.644;12167.683; 0.04492; 0.00139
 372.01; 1629.890;  140.643;12115.712; 0.04380; 0.00136
 372.60; 1545.804;  117.146;11975.456; 0.04317; 0.00134
 373.20; 1550.432;  174.654;12039.964; 0.04065; 0.00127
 373.79; 1417.757;  147.261;11941.740; 0.03663; 0.00114
 374.39; 1322.246;  135.358;11902.018; 0.03467; 0.00108
 374.98; 1212.045;  140.058;11792.806; 0.03139; 0.00098
 375.57; 1186.535;  132.655;11721.304; 0.03157; 0.00099
 376.17; 1116.722;  148.552;11796.660; 0.02922; 0.00092
 376.76; 1045.035;  126.855;11721.704; 0.02782; 0.00088
 377.36;  920.938;  108.556;11727.335; 0.02467; 0.00078
 377.95;  875.745;  123.558;11721.412; 0.02253; 0.00071
 378.55;  829.745;  127.358;11711.712; 0.02119; 0.00067
 379.14;  764.665;  124.964;11709.428; 0.01910; 0.00061
 379.73;  691.522;  107.651;11636.354; 0.01810; 0.00057
 380.33;  671.036;  127.356;11703.912; 0.01653; 0.00053
 380.92;  651.330;  140.554;11668.144; 0.01570; 0.00050
 381.51;  623.451;  150.860;11686.070; 0.01432; 0.00046
 382.11;  537.748;  107.159;11643.046; 0.01310; 0.00042
 382.70;  560.132;  150.654;11603.363; 0.01266; 0.00040
 383.30;  486.439;  131.356;11590.348; 0.01087; 0.00035
 383.89;  479.228;  148.153;11709.427; 0.01013; 0.00032
 384.48;  438.625;  116.153;11665.995; 0.00987; 0.00032
 385.08;  427.131;  135.354;11854.352; 0.00889; 0.00029
 385.67;  398.638;  111.656;11824.527; 0.00855; 0.00028
 386.27;  378.238;  119.756;11982.236; 0.00769; 0.00025
 386.86;  363.626;  118.553;12038.498; 0.00735; 0.00024
 387.45;  349.035;  105.955;12123.205; 0.00716; 0.00023
 388.05;  390.643;  157.557;12277.087; 0.00675; 0.00022
 388.64;  362.648;  161.559;12483.044; 0.00580; 0.00019
 389.23;  334.942;  148.357;12506.880; 0.00533; 0.00017
 389.83;  295.831;  119.954;12733.854; 0.00502; 0.00016
 390.42;  322.634;  151.455;13005.489; 0.00479; 0.00016
 391.01;  289.458;  118.762;13122.046; 0.00469; 0.00015
 391.61;  261.132;  112.254;13136.770; 0.00412; 0.00013
 392.20;  280.530;  129.354;13389.848; 0.00413; 0.00014
 392.79;  267.636;  110.456;13482.314; 0.00423; 0.00014
 393.39;  291.130;  176.754;13714.141; 0.00305; 0.00010
 393.98;  234.342;   96.957;13887.473; 0.00362; 0.00012
 394.57;  289.115;  144.349;14119.877; 0.00382; 0.00013
 395.17;  298.346;  181.358;14342.017; 0.00300; 0.00010
 395.76;  284.823;  157.252;14398.170; 0.00330; 0.00011
 396.35;  246.441;  121.657;14723.368; 0.00315; 0.00010
 396.95;  249.738;  153.556;14851.736; 0.00241; 0.00008
 397.54;  246.541;  129.257;15011.260; 0.00289; 0.00010
 398.13;  324.747;  210.558;15237.327; 0.00279; 0.00009
 398.73;  229.444;  137.058;15364.602; 0.00222; 0.00007
 399.32;  208.423;  116.952;15491.473; 0.00220; 0.00007
 399.91;  191.740;  120.357;15600.753; 0.00169; 0.00006
 400.50;  230.033;  142.255;15697.381; 0.00207; 0.00007
 401.10;  233.449;  151.159;15828.054; 0.00192; 0.00006
 401.69;  202.641;  127.157;15854.460; 0.00175; 0.00006
 402.28;  203.942;  132.357;15897.175; 0.00164; 0.00006
 402.88;  219.642;  140.157;15970.475; 0.00181; 0.00006
 403.47;  222.043;  117.857;16008.786; 0.00238; 0.00008
 404.06;  248.140;  152.956;16056.750; 0.00216; 0.00007
 404.66;  214.942;  146.857;16006.671; 0.00154; 0.00005
 405.25;  228.726;  155.853;16161.003; 0.00165; 0.00006
 405.84;  184.853;  134.860;16197.799; 0.00112; 0.00004
 406.43;  183.445;  110.258;16343.805; 0.00163; 0.00006
 407.03;  232.048;  159.759;16413.145; 0.00160; 0.00005
 407.62;  176.316;  114.250;16282.092; 0.00139; 0.00005
 408.21;  278.444;  202.758;16281.894; 0.00169; 0.00006
 408.80;  173.933;  111.055;16313.383; 0.00140; 0.00005
 409.40;  178.150;  111.459;16243.061; 0.00147; 0.00005
 409.99;  219.242;  148.957;16360.174; 0.00155; 0.00005
 410.58;  148.159;   97.362;16266.062; 0.00112; 0.00004
 411.17;  163.956;  109.861;16281.023; 0.00120; 0.00004
 411.77;  195.738;  151.656;16300.337; 0.00098; 0.00003
 412.36;  164.146;  108.458;16211.225; 0.00124; 0.00004
 412.95;  186.459;  117.362;16312.261; 0.00153; 0.00005
 413.54;  187.063;  127.563;16200.710; 0.00132; 0.00005
 414.14;  199.261;  135.163;16218.084; 0.00143; 0.00005
 414.73;  150.151;   94.360;15995.170; 0.00126; 0.00004
 415.32;  164.560;  111.262;16069.668; 0.00120; 0.00004
 415.91;  155.474;  109.366;15987.828; 0.00104; 0.00004
 416.50;  165.468;   95.064;15943.356; 0.00159; 0.00006
 417.10;  162.258;  111.162;15912.947; 0.00117; 0.00004
 417.69;  257.764;  183.263;15903.020; 0.00171; 0.00006
 418.28;  191.565;  141.563;15902.022; 0.00115; 0.00004
 418.87;  194.773;  148.466;15922.014; 0.00107; 0.00004
 419.47;  201.566;  126.764;15950.140; 0.00174; 0.00006
 420.06;  224.388;  168.670;15879.978; 0.00130; 0.00005
 420.65;  207.967;  155.164;15894.348; 0.00124; 0.00004
 421.24;  176.886;  120.869;15789.352; 0.00132; 0.00005
 421.83;  150.583;  107.869;15610.418; 0.00102; 0.00004
 422.43;  154.680;  123.968;15405.994; 0.00074; 0.00003
 423.02;  193.869;  152.165;15476.169; 0.00101; 0.00004
 423.61;  219.503;  162.074;15425.441; 0.00139; 0.00005
 424.20;  180.495;  134.772;15117.051; 0.00112; 0.00004
 424.79;  200.005;  145.875;15050.664; 0.00133; 0.00005
 425.38;  169.091;  120.671;14884.408; 0.00121; 0.00004
 425.98;  141.389;  106.470;14787.487; 0.00088; 0.00003
 426.57;  242.808;  185.876;14780.592; 0.00144; 0.00005
 427.16;  272.213;  196.677;14687.646; 0.00192; 0.00007
 427.75;  158.602;  113.374;14634.427; 0.00117; 0.00004
 428.34;  138.010;  105.476;14516.915; 0.00084; 0.00003
 428.93;  183.330;  143.182;14525.937; 0.00104; 0.00004
 429.53;  208.645;  147.486;14399.900; 0.00160; 0.00006
 430.12;  158.828;  111.081;14222.417; 0.00126; 0.00005
 430.71;  133.021;  102.079;14024.941; 0.00083; 0.00003
 431.30;  225.007;  177.075;14018.987; 0.00129; 0.00005
 431.89;  184.626;  139.481;13882.793; 0.00122; 0.00004
 432.48;  215.343;  167.685;13707.379; 0.00130; 0.00005
 433.08;  164.329;  125.282;13447.029; 0.00108; 0.00004
 433.67;  158.339;  134.684;13403.231; 0.00065; 0.00002
 434.26;  174.645;  132.886;13265.896; 0.00116; 0.00004
 434.85;  201.750;  150.987;13088.457; 0.00142; 0.00005
 435.44;  194.461;  135.390;12961.570; 0.00166; 0.00006
 436.03;  194.367;  156.292;12988.141; 0.00107; 0.00004
 436.62;  341.245;  249.186;12866.499; 0.00261; 0.00010
 437.21;  176.566;  142.792;12843.026; 0.00096; 0.00003
 437.81;  201.670;  161.293;12774.470; 0.00115; 0.00004
 438.40;  208.159;  162.390;12805.753; 0.00130; 0.00005
 438.99;  220.478;  144.495;12760.762; 0.00217; 0.00008
 439.58;  161.371;  124.993;12757.487; 0.00104; 0.00004
 440.17;  155.678;  132.595;12745.864; 0.00066; 0.00002
 440.76;  200.371;  158.293;12749.184; 0.00121; 0.00004
 441.35;  142.384;  113.797;12701.024; 0.00082; 0.00003
 441.94;  182.270;  149.493;12804.873; 0.00094; 0.00003
 442.53;  145.773;   95.694;12713.802; 0.00144; 0.00005
 443.12;  200.384;  145.797;12880.022; 0.00156; 0.00006
 443.72;  135.490;  105.499;12883.889; 0.00085; 0.00003
 444.31;  143.603;  119.602;12914.632; 0.00068; 0.00003
 444.90;  217.785;  177.597;13017.940; 0.00114; 0.00004
 445.49;  136.491;  114.599;12977.005; 0.00062; 0.00002
 446.08;  180.287;  132.398;13065.358; 0.00135; 0.00005
 446.67;  181.082;  141.996;13047.204; 0.00111; 0.00004
 447.26;  149.530;  108.810;13128.922; 0.00114; 0.00004
 447.85;  132.407;  103.903;13136.170; 0.00080; 0.00003
 448.44;  132.122;   96.507;13156.836; 0.00099; 0.00004
 449.03;  143.298;  105.201;13212.075; 0.00106; 0.00004
 449.62;  151.485;   98.197;13212.835; 0.00148; 0.00006
 450.21;  172.922;  142.608;13232.144; 0.00083; 0.00003
 450.80;  185.907;  132.803;13210.071; 0.00145; 0.00005
 451.39;  128.708;  102.204;13280.288; 0.00072; 0.00003
 451.98;  144.330;  116.710;13361.025; 0.00074; 0.00003
 452.57;  149.325;  123.308;13352.967; 0.00070; 0.00003
 453.17;  128.312;  103.805;13390.926; 0.00065; 0.00002
 453.76;  132.538;   98.212;13449.411; 0.00091; 0.00003
 454.35;  154.627;  119.209;13449.195; 0.00093; 0.00004
 454.94;  142.632;  113.110;13547.948; 0.00077; 0.00003
 455.53;  135.630;   98.810;13647.621; 0.00095; 0.00004
 456.12;  140.640;  110.013;13639.739; 0.00079; 0.00003
 456.71;  190.852;  143.616;13729.472; 0.00121; 0.00005
 457.30;  168.252;  109.316;13869.368; 0.00149; 0.00006
 457.89;  153.648;  122.815;13859.720; 0.00078; 0.00003
 458.48;  123.244;   86.714;13992.283; 0.00092; 0.00004
 459.07;  163.759;  133.618;14014.042; 0.00075; 0.00003
 459.66;  134.351;   94.616;14017.355; 0.00099; 0.00004
 460.25;  114.453;   91.816;14043.774; 0.00056; 0.00002
 460.84;  162.154;  115.516;14122.487; 0.00115; 0.00004
 461.43;  125.256;   92.917;14239.908; 0.00079; 0.00003
 462.02;  183.053;  135.216;14250.976; 0.00117; 0.00005
 462.61;  116.760;   90.918;14354.648; 0.00063; 0.00002
 463.20;  136.267;  108.920;14434.730; 0.00066; 0.00003
 463.79;  151.461;  127.419;14540.469; 0.00058; 0.00002
 464.38;  104.658;   82.818;14582.535; 0.00052; 0.00002
 464.97;  154.462;   96.319;14564.374; 0.00138; 0.00005
 465.56;  111.465;   86.920;14552.106; 0.00059; 0.00002
 466.15;  123.096;   89.628;14775.149; 0.00079; 0.00003
 466.74;  174.094;  115.128;14771.829; 0.00138; 0.00005
 467.32;  107.576;   63.923;14624.322; 0.00102; 0.00004
 467.91;  160.380;  112.124;14685.370; 0.00113; 0.00004
 468.50;  108.580;   76.624;14662.474; 0.00074; 0.00003
 469.09;  137.291;  101.027;14603.087; 0.00084; 0.00003
 469.68;  207.475;  168.922;14576.221; 0.00089; 0.00003
 470.27;  164.297;  125.529;14710.860; 0.00089; 0.00003
 470.86;  139.109;   94.832;14779.790; 0.00101; 0.00004
 471.45;  124.498;   98.329;14796.673; 0.00060; 0.00002
 472.04;  115.598;   75.729;14893.567; 0.00091; 0.00004
 472.63;  267.605;  199.831;14949.444; 0.00154; 0.00006
 473.22;  134.921;  104.735;15081.421; 0.00068; 0.00003
 473.81;  123.320;   83.335;15204.309; 0.00090; 0.00004
 474.40;  166.014;  139.133;15323.040; 0.00061; 0.00002
 474.99;  143.118;  108.034;15371.985; 0.00079; 0.00003
 475.58;  184.310;  144.432;15472.797; 0.00089; 0.00004
 476.17;  104.533;   77.639;15381.247; 0.00060; 0.00002
 476.76;  119.328;   72.837;15500.493; 0.00104; 0.00004
 477.34;  154.230;  108.738;15690.220; 0.00102; 0.00004
 477.93;  121.521;   82.435;15655.120; 0.00087; 0.00003
 478.52;  122.132;   77.138;15804.937; 0.00100; 0.00004
 479.11;  107.129;   67.038;15723.306; 0.00089; 0.00004
 479.70;  204.329;  150.437;15824.401; 0.00120; 0.00005
 480.29;   67.226;   35.837;15854.772; 0.00070; 0.00003
 480.88;  128.417;   83.734;15970.172; 0.00100; 0.00004
 481.47;  145.829;   93.738;16240.510; 0.00115; 0.00005
 482.06;  102.628;   82.137;16277.097; 0.00046; 0.00002
 482.64;  118.417;   76.234;16369.672; 0.00094; 0.00004
 483.23;  111.616;   66.934;16600.365; 0.00100; 0.00004
 483.82;  101.924;   65.236;16701.951; 0.00082; 0.00003
 484.41;  116.936;   83.640;16720.385; 0.00074; 0.00003
 485.00;   91.240;   68.640;16684.320; 0.00051; 0.00002
 485.59;  117.426;   84.837;16757.570; 0.00073; 0.00003
 486.18;  110.928;   67.837;16565.195; 0.00097; 0.00004
 486.77;  119.634;   99.239;16641.256; 0.00046; 0.00002
 487.35;  135.144;   97.942;16516.766; 0.00084; 0.00003
 487.94;  139.953;  103.544;16342.365; 0.00083; 0.00003
 488.53;  179.326;  120.337;16328.276; 0.00134; 0.00005
 489.12;  118.630;   78.338;16137.914; 0.00092; 0.00004
 489.71;  118.948;   73.043;16040.510; 0.00105; 0.00004
 490.30;  107.028;   75.137;15823.296; 0.00074; 0.00003
 490.89;  103.548;   77.243;15770.310; 0.00061; 0.00003
 491.47;  200.338;  141.540;15636.203; 0.00137; 0.00006
 492.06;  163.850;  121.544;15767.440; 0.00098; 0.00004
 492.65;   92.130;   73.638;15651.517; 0.00043; 0.00002
 493.24;  114.840;   85.340;15745.321; 0.00069; 0.00003
 493.83;  106.446;   73.942;15737.289; 0.00077; 0.00003
 494.42;   81.429;   53.138;15680.605; 0.00067; 0.00003
 495.00;  144.566;   93.948;15772.610; 0.00121; 0.00005
 495.59;  127.955;  101.745;15555.489; 0.00063; 0.00003
 496.18;  118.541;   75.841;15587.835; 0.00103; 0.00004
 496.77;   89.859;   55.746;15499.329; 0.00083; 0.00003
 497.36;  157.848;  108.643;15408.615; 0.00121; 0.00005
 497.94;  151.744;  116.542;15405.174; 0.00087; 0.00004
 498.53;   95.469;   70.649;15336.545; 0.00061; 0.00003
 499.12;   82.778;   49.051;15247.135; 0.00084; 0.00004
 499.71;  122.745;   84.842;15223.276; 0.00095; 0.00004
 500.30;  104.053;   74.944;15162.171; 0.00073; 0.00003
 500.88;  133.779;   97.752;15165.755; 0.00091; 0.00004
 501.47;   95.471;   77.949;15064.069; 0.00045; 0.00002
 502.06;  115.873;   85.650;15084.289; 0.00078; 0.00003
 502.65;  112.569;   71.749;15053.546; 0.00106; 0.00004
 503.23;  100.259;   67.646;14986.635; 0.00085; 0.00004
 503.82;  105.471;   67.349;15037.966; 0.00099; 0.00004
 504.41;   92.384;   53.153;14906.905; 0.00103; 0.00004
 505.00;  214.774;  155.250;14855.493; 0.00157; 0.00007
 505.58;  130.567;   96.648;14830.521; 0.00090; 0.00004
 506.17;  170.682;  114.252;14742.188; 0.00151; 0.00006
 506.76;  139.364;   81.647;14670.589; 0.00154; 0.00007
 507.35;  160.482;   99.352;14583.180; 0.00165; 0.00007
 507.93;  114.492;   76.655;14526.590; 0.00103; 0.00004
 508.52;  100.088;   63.054;14549.052; 0.00101; 0.00004
 509.11;  126.674;   70.950;14402.097; 0.00152; 0.00006
 509.70;  111.086;   60.253;14285.923; 0.00140; 0.00006
 510.28;  135.885;   96.753;14326.917; 0.00108; 0.00005
 510.87;  123.393;   68.556;14263.308; 0.00152; 0.00007
 511.46;  113.392;   63.355;14128.893; 0.00140; 0.00006
 512.05;  142.077;   53.451;14064.229; 0.00250; 0.00011
 512.63;  151.809;   85.560;14044.876; 0.00187; 0.00008
 513.22;  136.594;   60.356;13960.816; 0.00218; 0.00009
 513.81;  159.821;   74.763;13930.912; 0.00244; 0.00010
 514.40;  137.511;   56.561;13850.705; 0.00234; 0.00010
 514.98;  183.413;   91.761;13811.717; 0.00266; 0.00011
 515.57;  212.794;   98.256;13759.513; 0.00334; 0.00014
 516.16;  334.201;  194.558;13665.995; 0.00412; 0.00018
 516.74;  165.402;   61.158;13650.798; 0.00308; 0.00013
 517.33;  237.391;   93.655;13631.582; 0.00427; 0.00018
 517.92;  232.504;   77.059;13572.029; 0.00464; 0.00020
 518.50;  197.919;   50.163;13526.084; 0.00445; 0.00019
 519.09;  267.902;   76.358;13522.206; 0.00575; 0.00025
 519.68;  235.208;   63.860;13582.164; 0.00517; 0.00022
 520.26;  248.709;   61.960;13514.477; 0.00566; 0.00025
 520.85;  297.207;   67.859;13509.653; 0.00698; 0.00030
 521.44;  316.303;   83.258;13416.109; 0.00715; 0.00031
 522.02;  302.798;   48.057;13449.657; 0.00782; 0.00034
 522.61;  346.622;   54.064;13481.719; 0.00899; 0.00039
 523.20;  410.407;  102.759;13529.651; 0.00947; 0.00041
 523.78;  366.909;   36.860;13421.774; 0.01019; 0.00045
 524.37;  430.310;   81.160;13489.089; 0.01081; 0.00047
 524.96;  445.618;   53.963;13546.479; 0.01216; 0.00053
 525.54;  512.817;   79.662;13559.268; 0.01346; 0.00059
 526.13;  542.615;   86.061;13613.739; 0.01421; 0.00062
 526.72;  526.110;   36.160;13636.987; 0.01529; 0.00067
 527.30;  600.332;   79.866;13736.029; 0.01624; 0.00072
 527.89;  667.627;   87.665;13772.479; 0.01813; 0.00080
 528.48;  697.019;   67.963;13717.585; 0.01970; 0.00087
 529.06;  783.926;   96.665;13839.567; 0.02152; 0.00095
 529.65;  815.835;   87.867;13879.060; 0.02280; 0.00101
 530.23;  899.048;   90.871;13985.299; 0.02534; 0.00112
 530.82;  951.919;   92.763;14006.492; 0.02701; 0.00120
 531.41;  992.524;   82.864;13952.847; 0.02873; 0.00128
 531.99; 1145.728;  128.365;14189.484; 0.03201; 0.00142
 532.58; 1105.337;   53.068;14202.188; 0.03323; 0.00148
 533.17; 1606.839;  372.868;14394.606; 0.03873; 0.00173
 533.75; 1269.329;   82.365;14400.594; 0.03727; 0.00166
 534.34; 1312.530;   46.266;14487.405; 0.03982; 0.00178
 534.92; 1467.131;  109.366;14675.321; 0.04252; 0.00190
 535.51; 1506.033;   65.267;14802.540; 0.04498; 0.00201
 536.10; 1590.328;   73.565;14892.283; 0.04751; 0.00213
 536.68; 1642.324;   46.464;14930.339; 0.04979; 0.00223
 537.27; 1779.541;   71.169;15110.231; 0.05327; 0.00239
 537.85; 1882.630;   79.266;15302.512; 0.05575; 0.00251
 538.44; 1951.945;   64.070;15447.575; 0.05811; 0.00261
 539.02; 2006.732;   44.966;15526.634; 0.06046; 0.00272
 539.61; 2166.135;   51.267;15661.866; 0.06467; 0.00292
 540.20; 2267.944;   99.270;15878.364; 0.06606; 0.00298
 540.78; 2381.039;   90.468;16158.702; 0.06922; 0.00313
 541.37; 2451.755;   64.073;16286.580; 0.07175; 0.00325
 541.95; 2589.250;  101.471;16484.824; 0.07444; 0.00337
 542.54; 2654.053;   80.672;16728.355; 0.07622; 0.00346
 543.12; 2788.238;  103.568;16867.094; 0.07894; 0.00358
 543.71; 2872.642;   90.769;17189.740; 0.08108; 0.00368
 544.29; 2953.537;   73.468;17314.779; 0.08332; 0.00379
 544.88; 3071.935;   92.767;17689.258; 0.08525; 0.00388
 545.47; 3076.433;   40.767;17727.537; 0.08664; 0.00395
 546.05; 3226.950;   89.871;17966.822; 0.08881; 0.00405
 546.64; 3502.640;  236.468;18134.611; 0.09214; 0.00421
 547.22; 3341.655;   67.473;18293.980; 0.09161; 0.00419
 547.81; 3454.758;  109.374;18506.514; 0.09275; 0.00425
 548.39; 3479.150;   68.371;18651.521; 0.09448; 0.00433
 548.98; 3557.647;   82.770;18741.889; 0.09631; 0.00442
 549.56; 3583.450;   80.571;18939.928; 0.09626; 0.00442
 550.15; 3597.347;   49.370;19057.387; 0.09749; 0.00448
 550.73; 3619.367;   61.976;19266.816; 0.09750; 0.00449
 551.32; 3661.664;   69.075;19436.779; 0.09810; 0.00452
 551.90; 3695.447;   60.871;19450.693; 0.09934; 0.00458
 552.49; 3764.163;   87.875;19831.463; 0.09988; 0.00461
 553.07; 3803.651;  100.672;19986.041; 0.10065; 0.00465
 553.66; 3803.154;   84.973;20108.471; 0.10061; 0.00466
 554.24; 3900.868;  179.276;20174.721; 0.10127; 0.00469
 554.83; 3780.158;   81.874;20293.715; 0.10008; 0.00464
 555.41; 3759.860;   74.874;20431.230; 0.09961; 0.00462
 556.00; 3789.759;   89.774;20531.824; 0.09964; 0.00463
 556.58; 3750.874;   77.378;20630.889; 0.09907; 0.00461
 557.17; 3722.771;   79.077;20893.254; 0.09795; 0.00456
 557.75; 3690.382;   62.280;21027.377; 0.09755; 0.00455
 558.33; 3672.868;   57.876;21327.117; 0.09635; 0.00450
 558.92; 3669.681;   69.480;21511.662; 0.09575; 0.00447
 559.50; 3633.170;   57.177;21679.539; 0.09479; 0.00443
 560.09; 3608.071;   52.377;21966.859; 0.09391; 0.00440
 560.67; 3617.872;   92.177;22094.262; 0.09307; 0.00436
 561.26; 3815.968;  273.977;22325.426; 0.09310; 0.00437
 561.84; 3550.674;   96.578;22537.285; 0.09073; 0.00426
 562.43; 3453.585;   69.881;22665.506; 0.08846; 0.00416
 563.01; 3455.867;   68.476;22804.908; 0.08883; 0.00418
 563.60; 3354.770;   63.477;22987.145; 0.08608; 0.00405
 564.18; 3252.068;   18.377;22954.326; 0.08508; 0.00401
 564.76; 3286.174;   96.978;23225.584; 0.08383; 0.00396
 565.35; 3174.278;   19.179;23472.633; 0.08256; 0.00390
 565.93; 3212.078;   84.879;23797.533; 0.08178; 0.00387
 566.52; 3159.973;   57.978;24374.377; 0.08069; 0.00382
 567.10; 3084.984;   42.481;24673.195; 0.07945; 0.00377
 567.68; 3029.767;   45.276;25084.010; 0.07769; 0.00369
 568.27; 2948.576;   22.979;25516.410; 0.07628; 0.00362
 568.85; 3039.779;  107.380;26141.744; 0.07605; 0.00362
 569.44; 2889.184;   44.781;26641.191; 0.07392; 0.00352
 570.02; 2784.175;    5.678;27187.600; 0.07194; 0.00343
 570.60; 2785.683;   76.581;27742.281; 0.06993; 0.00334
 571.19; 2755.476;   64.579;28157.010; 0.06922; 0.00330
 571.77; 2743.970;   90.277;28428.947; 0.06840; 0.00327
 572.36; 2588.269;   14.977;28979.928; 0.06609; 0.00316
 572.94; 2612.879;   57.780;29391.047; 0.06551; 0.00314
 573.52; 2506.082;   21.580;29856.078; 0.06360; 0.00305
 574.11; 2481.884;   31.081;30210.297; 0.06250; 0.00300
 574.69; 2474.072;   39.278;30610.469; 0.06212; 0.00298
 575.27; 2432.575;   33.378;31068.201; 0.06088; 0.00293
 575.86; 2383.580;   44.780;31324.652; 0.05944; 0.00286
 576.44; 2334.983;   41.781;31821.682; 0.05809; 0.00280
 577.03; 2275.564;   38.175;32242.576; 0.05663; 0.00273
 577.61; 2236.566;   28.576;32332.604; 0.05600; 0.00270
 578.19; 2213.179;   27.179;32663.738; 0.05533; 0.00267
 578.78; 2155.478;   28.379;33150.430; 0.05379; 0.00260
 579.36; 2145.089;   21.282;33498.246; 0.05355; 0.00259
 579.94; 2128.365;   54.176;33838.488; 0.05218; 0.00253
 580.53; 2089.585;   50.281;33925.402; 0.05121; 0.00248
 581.11; 2072.679;   60.479;33902.137; 0.05032; 0.00244
 581.69; 2059.276;   82.579;33934.109; 0.04933; 0.00240
 582.28; 2008.877;   40.579;34024.719; 0.04916; 0.00239
 582.86; 1945.482;   29.580;34404.578; 0.04777; 0.00233
 583.44; 1937.380;   65.680;34290.453; 0.04681; 0.00228
 584.02; 1888.773;   43.078;34502.574; 0.04592; 0.00224
 584.61; 1901.671;   67.677;34367.449; 0.04563; 0.00223
 585.19; 1905.688;   72.082;34147.840; 0.04575; 0.00224
 585.77; 1839.280;   69.280;34324.949; 0.04419; 0.00216
 586.36; 1786.364;   34.775;34220.977; 0.04379; 0.00215
 586.94; 1750.889;   45.182;34264.648; 0.04278; 0.00210
 587.52; 1705.469;   16.577;34169.328; 0.04230; 0.00208
 588.11; 1716.782;   53.080;34027.176; 0.04195; 0.00206
 588.69; 1729.768;   76.376;34133.223; 0.04174; 0.00205
 589.27; 1641.184;   27.181;34017.098; 0.04091; 0.00201
 589.85; 1616.480;   34.080;34200.453; 0.04005; 0.00197
 590.44; 1606.884;   21.681;34417.695; 0.04012; 0.00198
 591.02; 1584.881;   37.680;34525.262; 0.03939; 0.00195
 591.60; 1551.968;   32.876;34488.723; 0.03871; 0.00191
 592.18; 1540.581;   49.980;34247.359; 0.03833; 0.00190
 592.77; 1515.461;   48.875;34253.250; 0.03783; 0.00187
 593.35; 1454.388;   16.382;34408.547; 0.03719; 0.00184
 593.93; 1413.487;    4.282;34700.426; 0.03639; 0.00181
 594.51; 1404.376;   28.279;34792.813; 0.03582; 0.00178
 595.10; 1353.176;  -19.621;35006.313; 0.03578; 0.00178
 595.68; 1372.285;   37.981;35184.211; 0.03493; 0.00174
 596.26; 1294.578;    5.179;35202.832; 0.03384; 0.00169
 596.84; 1276.171;  -11.623;35400.758; 0.03394; 0.00169
 597.43; 1317.471;   44.577;35554.852; 0.03368; 0.00168
 598.01; 1250.968;    5.076;35705.520; 0.03308; 0.00165
 598.59; 1243.785;    6.281;35872.508; 0.03288; 0.00165
 599.17; 1220.968;   16.776;35825.816; 0.03218; 0.00161
 599.76; 1184.478;   -1.421;35690.133; 0.03182; 0.00160
 600.34; 1156.860;   -2.426;35831.438; 0.03123; 0.00157
 600.92; 1186.872;   36.577;35801.262; 0.03111; 0.00156
 601.50; 1117.559;   -4.726;35980.527; 0.03039; 0.00153
 602.08; 1172.565;   74.876;35747.195; 0.02993; 0.00151
 602.67; 1151.763;   59.875;35853.664; 0.02988; 0.00150
 603.25; 1046.582;    6.580;35959.473; 0.02849; 0.00144
 603.83; 1052.382;   11.180;35792.375; 0.02868; 0.00145
 604.41; 1009.575;   -2.522;35914.496; 0.02798; 0.00141
 604.99; 1035.169;   47.377;36049.531; 0.02741; 0.00139
 605.58;  978.458;    9.674;35814.113; 0.02720; 0.00138
 606.16;  970.869;   14.777;35771.234; 0.02697; 0.00137
 606.74;  957.764;   29.775;35656.973; 0.02632; 0.00133
 607.32;  894.584;   15.481;35315.395; 0.02502; 0.00127
 607.90;  982.670;   76.477;35155.938; 0.02593; 0.00132
 608.48;  882.280;   21.180;34978.152; 0.02477; 0.00126
 609.07;  891.487;   53.182;34852.227; 0.02426; 0.00123
 609.65;  950.666;  109.676;34810.895; 0.02436; 0.00124
 610.23;  826.468;   24.477;34730.625; 0.02339; 0.00119
 610.81;  757.474;   -8.022;34496.090; 0.02242; 0.00114
 611.39;  733.668;  -18.224;34449.219; 0.02211; 0.00113
 611.97;  783.365;   23.876;34513.590; 0.02246; 0.00115
 612.55;  763.183;   29.181;34686.289; 0.02172; 0.00111
 613.14;  720.374;   -9.422;34700.883; 0.02170; 0.00111
 613.72;  691.560;  -38.326;34388.938; 0.02190; 0.00112
 614.30;  695.167;   -8.624;34659.613; 0.02108; 0.00108
 614.88;  674.368;    2.576;34379.121; 0.02027; 0.00104
 615.46;  647.172;    2.977;34221.359; 0.01955; 0.00101
 616.04;  676.656;   25.773;33908.996; 0.01995; 0.00103
 616.62;  652.660;   33.174;33753.336; 0.01900; 0.00098
 617.20;  584.262;  -34.725;33597.859; 0.01908; 0.00098
 617.79;  654.463;   50.475;33727.773; 0.01859; 0.00096
 618.37;  571.781;  -18.220;33152.965; 0.01834; 0.00095
 618.95;  582.766;   19.576;33161.605; 0.01762; 0.00091
 619.53;  530.267;  -23.724;32939.707; 0.01742; 0.00090
 620.11;  524.969;   -4.123;33004.430; 0.01671; 0.00087
 620.69;  511.262;   -2.425;32959.859; 0.01631; 0.00085
 621.27;  537.974;   33.878;32839.289; 0.01613; 0.00084
 621.85;  489.167;   15.776;32868.613; 0.01514; 0.00079
 622.43;  459.063;  -10.725;32800.363; 0.01518; 0.00079
 623.01;  426.469;  -52.623;32647.637; 0.01557; 0.00081
 623.59;  422.852;  -42.528;32613.248; 0.01519; 0.00079
 624.17;  440.277;    6.579;32739.422; 0.01421; 0.00074
 624.76;  430.358;  -11.726;32559.518; 0.01456; 0.00076
 625.34;  434.173;  -10.722;32568.980; 0.01476; 0.00077
 625.92;  430.175;   -0.122;32468.295; 0.01431; 0.00075
 626.50;  356.872;  -31.322;32290.064; 0.01300; 0.00068
 627.08;  427.079;   -6.320;32135.045; 0.01458; 0.00076
 627.66;  394.675;    1.679;32275.604; 0.01324; 0.00069
 628.24;  370.055;  -12.027;31949.385; 0.01298; 0.00068
 628.82;  373.358;  -12.326;31947.217; 0.01312; 0.00069
 629.40;  342.968;  -19.124;31771.922; 0.01238; 0.00065
 629.98;  304.561;  -37.626;31671.943; 0.01174; 0.00062
 630.56;  312.452;  -18.428;31838.951; 0.01138; 0.00060
 631.14;  298.969;  -47.123;31703.836; 0.01195; 0.00063
 631.72;  289.147;  -36.630;31831.287; 0.01127; 0.00059
 632.30;  262.459;  -44.926;31650.430; 0.01071; 0.00057
 632.88;  248.457;  -56.627;31645.305; 0.01068; 0.00057
 633.46;  242.570;  -48.723;31591.738; 0.01025; 0.00054
 634.04;  288.955;  -20.727;31630.781; 0.01091; 0.00058
 634.62;  323.265;   13.576;31356.793; 0.01104; 0.00059
 635.20;  274.261;   -5.226;31504.246; 0.00995; 0.00053
 635.78;  208.362;  -48.825;31576.955; 0.00923; 0.00049
 636.36;  221.761;  -48.025;31361.947; 0.00975; 0.00052
 636.94;  287.447;   18.171;31584.695; 0.00974; 0.00052
 637.52;  220.353;  -31.428;31522.854; 0.00915; 0.00049
 638.10;  180.752;  -67.128;31509.953; 0.00903; 0.00048
 638.68;  237.749;  -30.029;31569.314; 0.00978; 0.00052
 639.26;  222.771;  -15.123;31614.053; 0.00873; 0.00047
 639.84;  294.766;   30.876;31718.201; 0.00971; 0.00052
 640.42;  176.963;  -48.125;31593.980; 0.00831; 0.00044
 641.00;  160.263;  -72.625;31727.652; 0.00859; 0.00046
 641.58;  181.764;  -32.725;31806.523; 0.00794; 0.00043
 642.16;  173.164;  -36.525;31878.197; 0.00776; 0.00042
 642.74;  187.565;  -15.124;32005.869; 0.00752; 0.00040
 643.32;  181.765;  -16.024;32003.541; 0.00737; 0.00040
 643.90;  173.666;  -24.724;31874.514; 0.00742; 0.00040
 644.47;  151.267;  -33.924;31967.086; 0.00697; 0.00038
 645.05;  146.467;  -43.024;32259.957; 0.00713; 0.00038
 645.63;  167.368;  -29.624;32513.930; 0.00741; 0.00040
 646.21;  168.268;  -40.423;32526.102; 0.00788; 0.00043
 646.79;  169.369;  -18.323;32665.674; 0.00710; 0.00038
 647.37;  138.269;  -48.523;32710.047; 0.00711; 0.00038
 647.95;  189.370;   11.777;32776.320; 0.00677; 0.00037
 648.53;  165.271;  -17.623;32969.391; 0.00698; 0.00038
 649.11;  114.571;  -59.123;33030.465; 0.00666; 0.00036
 649.69;   98.472;  -62.923;33200.035; 0.00620; 0.00034
 650.27;  118.272;  -37.322;33310.707; 0.00599; 0.00033
 650.85;   95.473;  -50.422;33928.180; 0.00561; 0.00031
 651.42;  104.573;  -54.322;34418.152; 0.00615; 0.00033
 652.00;   80.874;  -69.822;34969.625; 0.00582; 0.00032
 652.58;  108.475;  -42.522;35191.797; 0.00585; 0.00032
 653.16;  103.675;  -49.022;36135.668; 0.00593; 0.00032
 653.74;  134.176;  -19.021;36648.441; 0.00595; 0.00033
 654.32;  141.876;    0.879;37165.813; 0.00549; 0.00030
 654.90;  108.477;  -21.321;37183.387; 0.00505; 0.00028
 655.48;   85.377;  -53.621;36928.457; 0.00543; 0.00030
 656.05;   57.078;  -79.821;36971.133; 0.00535; 0.00029
 656.63;   79.979;  -44.121;37052.504; 0.00486; 0.00027
 657.21;  114.979;  -39.120;36949.676; 0.00604; 0.00033
 657.79;  141.580;   20.480;36851.949; 0.00474; 0.00026
 658.37;  269.380;   92.380;36239.219; 0.00697; 0.00038
 658.95;   87.481;  -40.820;35664.891; 0.00507; 0.00028
 659.53;   82.181;  -26.220;35354.664; 0.00427; 0.00024
 660.10;   60.582;  -46.620;34605.535; 0.00426; 0.00023
 660.68;   79.583;  -48.119;34863.910; 0.00506; 0.00028
 661.26;   92.383;  -22.219;34861.480; 0.00454; 0.00025
 661.84;   99.984;   -6.319;34877.855; 0.00424; 0.00023
 662.42;   86.384;  -33.619;34987.824; 0.00478; 0.00026
 663.00;  145.285;    2.181;35223.297; 0.00571; 0.00032
 663.57;   73.985;  -25.819;35418.969; 0.00398; 0.00022
 664.15;   45.986;  -59.519;35596.441; 0.00420; 0.00023
 664.73;   84.487;  -22.218;35720.516; 0.00426; 0.00024
 665.31;   55.687;  -41.418;35988.887; 0.00388; 0.00022
 665.89;   57.988;  -33.618;36325.660; 0.00364; 0.00020
 666.46;   42.188;  -65.918;36449.031; 0.00430; 0.00024
 667.04;   36.889;  -67.318;36462.703; 0.00415; 0.00023
 667.62;   35.889;  -53.018;36704.078; 0.00354; 0.00020
 668.20;   82.490;  -13.117;36966.848; 0.00380; 0.00021
 668.78;   49.090;  -47.417;37359.223; 0.00382; 0.00021
 669.35;  276.791;  130.883;37649.895; 0.00578; 0.00032
 669.93;   61.892;  -43.617;37991.066; 0.00416; 0.00023
 670.51;   16.992;  -76.017;38145.738; 0.00366; 0.00021
 671.09;   32.893;  -49.617;38209.109; 0.00324; 0.00018
 671.66;   79.393;  -13.216;38580.684; 0.00362; 0.00020
 672.24;   11.094;  -62.016;38670.656; 0.00286; 0.00016
 672.82;   66.494;  -34.916;39357.125; 0.00395; 0.00022
 673.40;   13.395;  -60.016;39317.500; 0.00287; 0.00016
 673.97;   52.696;  -39.716;39754.371; 0.00361; 0.00020
 674.55;   19.896;  -69.416;40012.742; 0.00349; 0.00020
 675.13;   54.897;  -27.216;40245.215; 0.00321; 0.00018
 675.71;   -8.203;  -81.115;40351.789; 0.00286; 0.00016
 676.28;   62.098;  -32.215;40497.563; 0.00370; 0.00021
 676.86;   38.498;  -35.215;40881.934; 0.00287; 0.00016
 677.44;   58.099;  -39.115;41243.406; 0.00377; 0.00021
 678.01;    0.400;  -56.715;41566.777; 0.00220; 0.00012
 678.59;   15.900;  -41.615;41856.949; 0.00221; 0.00013
 679.17;   57.801;  -15.414;42126.723; 0.00280; 0.00016
 679.75;   10.701;  -61.014;42527.496; 0.00273; 0.00016
 680.32;   15.402;  -63.114;42799.965; 0.00298; 0.00017
 680.90;    8.402;  -73.114;42983.039; 0.00309; 0.00018
 681.48;   34.703;  -35.014;43704.012; 0.00261; 0.00015
 682.05;   69.004;  -15.214;43718.582; 0.00317; 0.00018
 682.63;  -11.496;  -83.013;44042.055; 0.00269; 0.00015
 683.21;    2.805;  -66.313;44531.629; 0.00258; 0.00015
 683.78;   26.405;  -48.413;44788.398; 0.00279; 0.00016
 684.36;   13.406;  -67.313;44854.273; 0.00302; 0.00017
 684.94;   -6.594;  -70.513;45147.445; 0.00239; 0.00014
 685.52;   14.107;  -45.613;45579.016; 0.00223; 0.00013
 686.09;    2.108;  -63.112;45676.688; 0.00244; 0.00014
 686.67;   -4.292;  -72.812;45566.063; 0.00257; 0.00015
 687.25;   17.709;  -34.212;45785.234; 0.00195; 0.00011
 687.82;    7.409;  -59.912;45951.406; 0.00254; 0.00015
 688.40;   24.610;  -33.312;46290.379; 0.00217; 0.00013
 688.97;   -2.890;  -63.312;46223.852; 0.00228; 0.00013
 689.55;  -15.689;  -73.912;46394.621; 0.00219; 0.00013
 690.13;   34.812;  -32.711;46349.594; 0.00255; 0.00015
 690.70;   53.412;    3.589;46622.266; 0.00188; 0.00011
 691.28;   28.713;  -30.511;46828.539; 0.00223; 0.00013
 691.86;   17.013;  -26.811;47108.512; 0.00166; 0.00010
 692.43;   -2.586;  -49.811;47368.785; 0.00179; 0.00010
 693.01;   -2.186;  -48.211;47615.758; 0.00174; 0.00010
 693.59;   66.115;    4.790;47501.730; 0.00232; 0.00013
 694.16;   -9.485;  -71.310;47670.801; 0.00235; 0.00014
 694.74;   17.116;  -35.810;48102.574; 0.00201; 0.00012
 695.31;  -12.183;  -67.010;48244.445; 0.00208; 0.00012
 695.89;  -27.783;  -65.610;48315.719; 0.00144; 0.00008
 696.47;  -14.082;  -65.310;48414.789; 0.00195; 0.00011
 697.04;   89.818;   27.591;48520.863; 0.00237; 0.00014
 697.62;   41.319;  -11.709;48766.734; 0.00201; 0.00012
 698.19;   24.619;  -43.109;48808.207; 0.00258; 0.00015
 698.77;   32.820;  -14.509;49016.680; 0.00180; 0.00010
 699.34;   11.421;  -23.609;49065.551; 0.00133; 0.00008
 699.92;   28.721;  -31.909;49022.223; 0.00231; 0.00014
 700.50;  -13.778;  -62.509;49321.195; 0.00186; 0.00011
 701.07;  -20.378;  -41.808;49435.668; 0.00082; 0.00005
 701.65;    7.723;  -40.408;49736.641; 0.00183; 0.00011
 702.22;   14.223;  -27.708;49895.914; 0.00159; 0.00009
 702.80;   38.524;  -12.708;49964.785; 0.00196; 0.00011
 703.37;   27.025;  -17.408;50193.457; 0.00170; 0.00010
 703.95;   18.325;  -25.908;50479.629; 0.00169; 0.00010
 704.52;    8.326;  -36.807;50941.102; 0.00172; 0.00010
 705.10;  -29.674;  -71.907;51257.973; 0.00161; 0.00010
 705.68;  -27.573;  -71.807;51457.348; 0.00169; 0.00010
 706.25;  -10.373;  -51.107;51790.617; 0.00155; 0.00009
 706.83;    9.828;  -19.407;51709.492; 0.00112; 0.00007
 707.40;   50.829;   -5.507;51802.363; 0.00216; 0.00013
 707.98;   -2.171;  -32.306;52174.938; 0.00115; 0.00007
 708.55;  -18.770;  -41.406;52212.406; 0.00087; 0.00005
 709.13;   -0.470;  -39.006;52351.980; 0.00148; 0.00009
 709.70;   30.731;  -10.106;52634.453; 0.00157; 0.00009
 710.28;   22.631;  -34.606;52829.727; 0.00219; 0.00013
 710.85;   -2.168;  -46.506;52866.598; 0.00170; 0.00010
 711.43;  -20.667;  -57.805;53221.270; 0.00142; 0.00008
 712.00;   47.833;    4.195;53035.141; 0.00168; 0.00010
 712.58;   13.234;  -32.305;53267.813; 0.00175; 0.00010
 713.15;   22.934;  -18.105;53512.387; 0.00158; 0.00009
 713.73;  174.935;  106.895;53688.059; 0.00261; 0.00016
 714.30;   31.735;   -7.605;53973.031; 0.00151; 0.00009
 714.88;  -22.664;  -56.705;53874.602; 0.00131; 0.00008
 715.45;   25.236;  -12.804;54110.676; 0.00147; 0.00009
 716.03;    0.837;  -38.504;54504.449; 0.00151; 0.00009
 716.60;   -4.962;  -36.304;54248.020; 0.00121; 0.00007
 717.17;  -20.262;  -50.204;54334.492; 0.00116; 0.00007
 717.75;   -6.961;  -28.204;54719.965; 0.00082; 0.00005
 718.32;   29.839;   -5.404;54422.438; 0.00137; 0.00008
 718.90;  -17.360;  -44.003;54219.508; 0.00104; 0.00006
 719.47;    8.440;  -34.803;54395.980; 0.00169; 0.00010
 720.05;   22.141;  -19.203;54543.352; 0.00162; 0.00010
 720.62;   -3.258;  -32.503;54725.727; 0.00115; 0.00007
 721.20;   44.542;    1.497;54603.398; 0.00170; 0.00010
 721.77;   28.043;  -13.003;54810.770; 0.00162; 0.00010
 722.34;    0.643;  -25.502;54964.742; 0.00103; 0.00006
 722.92;  -29.456;  -69.302;54886.816; 0.00159; 0.00010
 723.49;  -59.156;  -86.002;55052.387; 0.00107; 0.00006
 724.07;   18.545;  -14.402;55315.660; 0.00131; 0.00008
 724.64;   -6.454;  -38.502;55283.133; 0.00128; 0.00008
 725.21;   -6.854;  -36.502;55661.605; 0.00118; 0.00007
 725.79;   14.347;  -14.802;55881.777; 0.00116; 0.00007
 726.36;    4.047;  -24.801;56024.648; 0.00115; 0.00007
 726.94;   -8.152;  -42.201;56315.820; 0.00136; 0.00008
 727.51;  -12.052;  -31.701;56807.895; 0.00078; 0.00005
 728.08;   -8.751;  -40.401;56846.766; 0.00127; 0.00008
 728.66;   -4.350;  -36.201;57255.438; 0.00127; 0.00008
 729.23;  -21.750;  -46.301;57826.512; 0.00098; 0.00006
 729.80;  -45.549;  -65.500;57723.582; 0.00080; 0.00005
 730.38;   -5.849;  -24.600;58136.555; 0.00075; 0.00005
 730.95;  -22.248;  -48.200;58380.727; 0.00104; 0.00006
 731.53;   11.652;  -19.900;58386.398; 0.00127; 0.00008
 732.10;   16.153;  -26.100;58444.473; 0.00170; 0.00010
 732.67;  -31.146;  -49.900;58673.445; 0.00076; 0.00005
 733.25;   31.254;   13.001;58645.816; 0.00074; 0.00005
 733.82;  -19.545;  -41.199;58935.488; 0.00087; 0.00005
 734.39;   -2.745;  -26.699;59133.359; 0.00097; 0.00006
 734.97;  -29.744;  -48.699;59207.234; 0.00077; 0.00005
 735.54;   57.756;   24.901;59275.906; 0.00133; 0.00008
 736.11;    6.557;  -27.699;59227.777; 0.00139; 0.00009
 736.69;   73.058;   21.402;59661.551; 0.00210; 0.00013
 737.26;    4.958;  -17.298;59761.621; 0.00090; 0.00006
 737.83;  -21.541;  -53.198;59570.594; 0.00129; 0.00008
 738.41;  -22.441;  -65.298;59493.766; 0.00175; 0.00011
 738.98;  -18.140;  -44.998;59380.039; 0.00110; 0.00007
 739.55;   30.860;    2.402;59269.609; 0.00116; 0.00007
 740.12;  -20.239;  -43.198;59404.781; 0.00094; 0.00006
 740.70;  -40.239;  -58.897;59095.055; 0.00077; 0.00005
 741.27;  -35.438;  -58.297;59266.027; 0.00094; 0.00006
 741.84;  -54.137;  -78.697;58997.301; 0.00101; 0.00006
 742.42;  -29.837;  -47.997;58935.172; 0.00075; 0.00005
 742.99;   51.464;    2.903;59108.945; 0.00201; 0.00012
 743.56;  -17.936;  -38.597;58782.516; 0.00086; 0.00005
 744.13;  -41.835;  -60.096;58925.988; 0.00076; 0.00005
 744.71;  168.965;   98.204;59260.961; 0.00295; 0.00018
 745.28;   -6.534;  -24.796;59793.035; 0.00076; 0.00005
 745.85;  -32.633;  -48.396;60592.605; 0.00066; 0.00004
 746.42;   -8.933;  -34.996;60780.477; 0.00110; 0.00007
 747.00;    5.568;  -27.496;60843.250; 0.00140; 0.00009
 747.57;  141.968;   94.605;61990.422; 0.00200; 0.00013
 748.14;  -14.931;  -42.195;62691.895; 0.00116; 0.00007
 748.71;    9.069;  -16.295;62852.969; 0.00108; 0.00007
 749.29;   -0.630;  -22.195;63047.340; 0.00092; 0.00006
 749.86;   10.571;  -34.295;62964.410; 0.00192; 0.00012
 750.43;  -24.129;  -37.195;62938.785; 0.00056; 0.00004
 751.00;  -34.328;  -60.395;63066.457; 0.00112; 0.00007
 751.58;  -27.928;  -53.194;62976.328; 0.00109; 0.00007
 752.15;  178.773;  103.706;62703.602; 0.00326; 0.00021
 752.72;  -44.627;  -67.394;62198.273; 0.00099; 0.00006
 753.29;  125.474;   53.406;61943.344; 0.00315; 0.00020
 753.86;  -40.125;  -64.594;61476.219; 0.00107; 0.00007
 754.44;    8.075;  -19.394;60961.590; 0.00121; 0.00008
 755.01;  -30.224;  -43.793;61186.664; 0.00060; 0.00004
 755.58;  -18.124;  -41.493;61188.133; 0.00104; 0.00007
 756.15;    3.377;  -33.793;61287.309; 0.00166; 0.00010
 756.72;   38.777;   -8.993;61241.980; 0.00214; 0.00014
 757.29;    2.078;  -25.193;61520.852; 0.00122; 0.00008
 757.87;  -41.221;  -66.893;61177.625; 0.00116; 0.00007
 758.44;  -32.621;  -49.592;61340.598; 0.00077; 0.00005
 759.01;   -2.320;  -33.492;61652.770; 0.00142; 0.00009
 759.58;  -41.720;  -61.392;61150.539; 0.00090; 0.00006
 760.15;   12.581;  -19.092;61244.414; 0.00145; 0.00009
 760.72;  -43.619;  -66.892;61275.887; 0.00107; 0.00007
 761.30;  -44.118;  -57.292;61491.059; 0.00061; 0.00004
 761.87;   -9.617;  -23.091;61700.730; 0.00062; 0.00004
 762.44;  -29.517;  -58.191;61389.602; 0.00134; 0.00009
 763.01;    4.984;  -12.991;61658.973; 0.00084; 0.00005
 763.58;   10.084;  -14.891;61295.145; 0.00118; 0.00008
 764.15;    1.685;  -24.191;61126.418; 0.00122; 0.00008
 764.72;    3.885;  -36.591;61225.391; 0.00192; 0.00012
 765.30;  -41.114;  -56.491;60961.664; 0.00073; 0.00005
 765.87;  -12.214;  -36.690;60665.336; 0.00118; 0.00008
 766.44;   44.487;   14.410;60815.809; 0.00144; 0.00009
 767.01;   41.088;    3.110;60390.180; 0.00184; 0.00012
 767.58;  -62.112;  -90.290;60249.254; 0.00137; 0.00009
 768.15;   21.589;    4.410;60025.125; 0.00084; 0.00005
 768.72;  -39.511;  -60.090;60071.797; 0.00101; 0.00006
 769.29;  -34.210;  -67.089;59639.867; 0.00162; 0.00010
 769.86;   19.390;  -23.589;59723.941; 0.00213; 0.00014
 770.43;  -55.409;  -70.789;59481.012; 0.00077; 0.00005
 771.00;   -9.608;  -23.889;59468.387; 0.00072; 0.00005
 771.58;    2.392;  -28.989;59318.758; 0.00157; 0.00010
 772.15;  -37.707;  -52.189;58759.230; 0.00073; 0.00005
 772.72;  -15.207;  -37.988;58501.004; 0.00116; 0.00008
 773.29;  -13.106;  -35.288;58823.375; 0.00113; 0.00007
 773.86;  -48.406;  -63.988;58642.848; 0.00080; 0.00005
 774.43;  -11.605;  -45.688;58347.719; 0.00176; 0.00011
 775.00;   -8.104;  -35.588;58084.594; 0.00143; 0.00009
 775.57;    8.896;  -19.788;58187.266; 0.00149; 0.00010
 776.14;   -1.903;  -18.088;57666.438; 0.00085; 0.00006
 776.71;   -0.803;   -8.287;57754.707; 0.00039; 0.00003
 777.28;  -20.302;  -40.287;57916.582; 0.00105; 0.00007
 777.85;  -26.202;  -35.687;57633.352; 0.00050; 0.00003
 778.42;   10.099;  -21.987;57701.227; 0.00172; 0.00011
 778.99;    4.600;   -5.487;57689.199; 0.00054; 0.00004
 779.56;  -29.800;  -38.687;57683.570; 0.00048; 0.00003
 780.13;  -22.899;  -32.086;57522.441; 0.00050; 0.00003
 780.70;   13.501;   -9.286;57127.715; 0.00125; 0.00008
 781.27;   -7.598;   -7.286;57373.688;-0.00002; 0.00000
 781.84;  -38.498;  -46.486;57035.359; 0.00044; 0.00003
 782.41;    8.003;    2.714;57011.230; 0.00029; 0.00002
 782.98;  -23.696;  -40.186;56933.703; 0.00092; 0.00006
 783.55;    0.004;  -26.885;56749.277; 0.00151; 0.00010
 784.12;    3.005;   -8.485;56663.449; 0.00065; 0.00004
 784.69;   21.105;   -0.885;56571.520; 0.00125; 0.00008
 785.26;  -12.794;  -38.585;56155.594; 0.00148; 0.00010
 785.83;  -60.894;  -65.785;56493.266; 0.00028; 0.00002
 786.40;    5.307;    0.715;56145.137; 0.00026; 0.00002
 786.97;   23.408;    3.616;56138.109; 0.00115; 0.00008
 787.54;   36.208;   10.016;55947.883; 0.00153; 0.00010
 788.11;   31.109;    3.716;55781.355; 0.00161; 0.00011
 788.68;  -27.091;  -43.284;55704.926; 0.00096; 0.00006
 789.25;  -18.290;  -19.784;55524.000; 0.00009; 0.00001
 789.82;    4.210;  -19.184;55552.473; 0.00140; 0.00009
 790.39;   -2.089;  -20.284;55451.941; 0.00110; 0.00007
 790.96;  -16.889;  -30.183;55430.816; 0.00080; 0.00005
 791.52;  -17.688;  -42.683;55217.586; 0.00152; 0.00010
 792.09;   62.213;   20.717;55290.262; 0.00254; 0.00017
 792.66;    5.413;  -17.783;54793.531; 0.00143; 0.00009
 793.23;   62.114;   29.917;54894.703; 0.00199; 0.00013
 793.80;    2.814;  -20.883;54770.176; 0.00147; 0.00010
 794.37;   15.815;  -12.482;54456.648; 0.00177; 0.00012
 794.94;   -5.685;  -15.882;54176.121; 0.00064; 0.00004
 795.51;   -2.284;  -28.782;54046.492; 0.00168; 0.00011
 796.08;  -29.083;  -24.282;53871.066;-0.00031;-0.00002
 796.65;  -14.183;  -32.682;53578.039; 0.00118; 0.00008
 797.21;   38.618;   15.018;53301.109; 0.00152; 0.00010
 797.78;   10.018;   -2.581;52997.883; 0.00082; 0.00005
 798.35;   57.919;   21.219;52509.055; 0.00239; 0.00016
 798.92;  678.219;  513.919;52532.129; 0.01074; 0.00072
 799.49;  -19.780;  -35.681;52089.301; 0.00105; 0.00007
 800.06;   52.921;   28.719;51915.273; 0.00161; 0.00011
 800.63;   19.021;   14.719;51659.145; 0.00029; 0.00002
 801.20;   -1.078;   -5.981;51781.215; 0.00033; 0.00002
 801.76;   10.322;  -16.280;51808.391; 0.00179; 0.00012
 802.33;   12.523;  -19.980;51489.063; 0.00220; 0.00015
 802.90;   39.823;   13.720;51322.234; 0.00178; 0.00012
 803.47;    4.424;  -18.880;51648.906; 0.00159; 0.00011
 804.04;  -17.875;  -35.980;51628.277; 0.00124; 0.00008
 804.61;   27.125;   19.920;51369.352; 0.00049; 0.00003
 805.17;  -17.274;  -29.679;51365.223; 0.00085; 0.00006
 805.74;   -0.974;  -39.079;51444.695; 0.00263; 0.00018
 806.31;    5.427;   -5.479;51037.367; 0.00076; 0.00005
 806.88;  -42.173;  -54.379;51096.238; 0.00085; 0.00006
 807.45;  -55.772;  -68.279;50997.012; 0.00087; 0.00006
 808.01;   -6.871;  -10.179;50947.582; 0.00023; 0.00002
 808.58;   62.529;   46.122;50841.555; 0.00116; 0.00008
 809.15;    8.930;   -2.878;50956.328; 0.00083; 0.00006
 809.72;   23.330;   -0.878;50689.500; 0.00172; 0.00012
 810.29;   11.331;  -17.978;50169.973; 0.00210; 0.00014
 810.85;    3.531;  -26.178;50108.844; 0.00215; 0.00015
 811.42;   -9.768;  -28.178;49628.117; 0.00135; 0.00009
 811.99;  -16.167;  -21.777;49373.191; 0.00041; 0.00003
 812.56;  -19.567;  -33.177;48973.660; 0.00101; 0.00007
 813.12;   14.834;   -3.077;48451.535; 0.00135; 0.00009
 813.69;    4.134;  -13.577;48256.105; 0.00134; 0.00009
 814.26;   -0.365;  -20.277;47696.578; 0.00153; 0.00010
 814.83;   -3.465;  -31.777;47276.250; 0.00220; 0.00015
 815.39;  -44.664;  -59.377;47147.422; 0.00115; 0.00008
 815.96;    5.136;  -17.676;46894.797; 0.00180; 0.00012
 816.53;   86.237;   31.324;46686.770; 0.00436; 0.00030
 817.10;   -7.662;  -36.476;46572.539; 0.00231; 0.00016
 817.66;  -54.862;  -62.676;46288.414; 0.00063; 0.00004
 818.23;  -51.661;  -64.176;46067.184; 0.00102; 0.00007
 818.80;  -42.261;  -57.476;45888.656; 0.00124; 0.00009
 819.37;    7.940;  -14.975;45872.930; 0.00188; 0.00013
 819.93;  -29.560;  -52.875;45789.703; 0.00193; 0.00013
 820.50;  -57.659;  -60.375;45226.676; 0.00023; 0.00002
 821.07;  -43.858;  -53.175;45200.645; 0.00078; 0.00005
 821.63;  116.142;   55.925;44835.719; 0.00509; 0.00035
 822.20;   79.043;   64.025;44818.590; 0.00127; 0.00009
 822.77;   18.643;  -15.174;44641.164; 0.00289; 0.00020
 823.34;  -18.156;  -35.774;44447.734; 0.00151; 0.00010
 823.90;  -33.856;  -36.574;44150.906; 0.00024; 0.00002
 824.47;   14.745;  -11.074;44035.379; 0.00225; 0.00015
 825.04;  -19.454;  -41.474;43910.254; 0.00193; 0.00013
 825.60;  -13.954;  -14.574;43882.324; 0.00005; 0.00000
 826.17;  -49.853;  -55.874;43471.496; 0.00054; 0.00004
 826.74;  -21.753;  -44.173;43311.770; 0.00200; 0.00014
 827.30;  -42.452;  -53.173;42923.641; 0.00096; 0.00007
 827.87;   -2.352;  -20.273;42849.914; 0.00162; 0.00011
 828.43;  -16.651;  -26.873;42678.484; 0.00093; 0.00006
 829.00;  -29.650;  -65.173;42585.656; 0.00323; 0.00022
 829.57;   -7.750;  -25.773;42440.332; 0.00165; 0.00011
 830.13;  -72.349;  -73.272;42015.703; 0.00008; 0.00001
 830.70;  -43.849;  -56.972;41864.375; 0.00121; 0.00008
 831.27;  -16.748;  -33.672;41474.148; 0.00157; 0.00011
 831.83;  -44.948;  -53.372;41387.020; 0.00079; 0.00005
 832.40;  -15.247;  -22.572;41185.090; 0.00069; 0.00005
 832.97;   48.254;    6.828;41002.664; 0.00391; 0.00027
 833.53;  -41.146;  -43.071;41077.836; 0.00018; 0.00001
 834.10;  -32.645;  -39.071;40836.008; 0.00061; 0.00004
 834.66;  -36.445;  -53.871;40648.781; 0.00167; 0.00012
 835.23;  -12.044;  -42.671;40573.055; 0.00294; 0.00021
 835.80;  -33.444;  -61.771;40440.824; 0.00274; 0.00019
 836.36;  -28.443;  -41.671;40334.199; 0.00129; 0.00009
 836.93;   -2.242;  -18.970;40271.168; 0.00163; 0.00011
 837.49;   36.758;   18.630;40151.543; 0.00177; 0.00012
 838.06;  -10.841;  -28.470;40058.313; 0.00173; 0.00012
 838.62;  -20.741;  -48.070;39899.086; 0.00270; 0.00019
 839.19;  -11.840;  -37.770;39905.758; 0.00257; 0.00018
 839.76;  -30.440;  -32.870;39728.430; 0.00024; 0.00002
 840.32;  -49.439;  -66.470;39485.805; 0.00171; 0.00012
 840.89;  219.961;  172.031;39678.176; 0.00482; 0.00034
 841.45;  -13.938;  -25.669;39488.348; 0.00118; 0.00008
 842.02;  -62.337;  -76.369;39167.621; 0.00143; 0.00010
 842.58;  -40.237;  -50.069;39187.094; 0.00101; 0.00007
 843.15;   33.064;   -4.269;39180.465; 0.00383; 0.00027
 843.71;  -36.536;  -48.569;39060.836; 0.00124; 0.00009
 844.28;  -74.935;  -79.768;38864.809; 0.00050; 0.00004
 844.84;    1.865;  -21.268;38862.082; 0.00240; 0.00017
 845.41;  -23.934;  -51.168;38615.355; 0.00285; 0.00020
 845.97;  -42.733;  -56.768;38402.527; 0.00147; 0.00010
 846.54;  -31.333;  -51.168;38075.898; 0.00210; 0.00015
 847.10;  -28.632;  -35.168;38229.371; 0.00069; 0.00005
 847.67;  -48.832;  -58.667;37966.344; 0.00105; 0.00007
 848.23;  -29.131;  -48.767;38067.414; 0.00209; 0.00015
 848.80;   -6.931;  -17.467;38042.086; 0.00113; 0.00008
 849.36;  -34.730;  -46.167;37738.262; 0.00123; 0.00009
 849.93;  -25.329;  -31.867;37655.934; 0.00071; 0.00005
 850.49;  -29.529;  -39.867;37582.004; 0.00113; 0.00008
 851.06;  -51.428;  -69.367;37505.277; 0.00196; 0.00014
 851.62;  -34.928;  -54.266;37262.051; 0.00213; 0.00015
 852.19;  -30.727;  -42.866;37233.020; 0.00134; 0.00010
 852.75;  -49.627;  -60.466;37155.895; 0.00120; 0.00009
 853.32;  -18.726;  -28.666;37105.266; 0.00111; 0.00008
 853.88;   -9.225;  -39.666;36902.438; 0.00341; 0.00024
 854.45;    1.975;  -18.166;37137.012; 0.00225; 0.00016
 855.01;   12.276;   -2.965;37010.383; 0.00171; 0.00012
 855.57;  -37.924;  -51.465;36921.453; 0.00153; 0.00011
 856.14;  -52.723;  -63.265;36626.629; 0.00120; 0.00009
 856.70;  -43.223;  -49.365;36714.199; 0.00070; 0.00005
 857.27;  -30.322;  -44.865;36510.172; 0.00167; 0.00012
 857.83;  -79.521;  -84.265;36357.344; 0.00055; 0.00004
 858.40;   35.079;   -2.264;36322.215; 0.00430; 0.00031
 858.96;  -15.120;  -44.364;36140.387; 0.00340; 0.00024
 859.52;  -13.020;  -42.264;36171.262; 0.00339; 0.00024
 860.09;  -32.419;  -43.564;35921.734; 0.00130; 0.00009
 860.65;  -23.119;  -34.264;35764.504; 0.00131; 0.00009
 861.22;  -29.818;  -42.764;35727.977; 0.00152; 0.00011
 861.78;  -14.217;  -17.363;35638.051; 0.00037; 0.00003
 862.34;  -43.517;  -50.163;35649.922; 0.00079; 0.00006
 862.91;  -20.316;  -41.863;35682.594; 0.00255; 0.00018
 863.47;  119.784;   60.137;35224.566; 0.00716; 0.00052
 864.03;  -59.315;  -59.263;35401.738;-0.00001; 0.00000
 864.60;    0.885;  -21.663;35293.512; 0.00271; 0.00020
 865.16;  -66.914;  -66.963;35132.184; 0.00001; 0.00000
 865.73;  -29.514;  -31.262;35111.855; 0.00021; 0.00002
 866.29;  115.187;   71.938;35043.527; 0.00527; 0.00038
 866.85;  -59.312;  -70.162;34721.301; 0.00133; 0.00010
 867.42;  -26.712;  -40.162;34616.371; 0.00165; 0.00012
 867.98;  -57.811;  -64.262;34527.145; 0.00080; 0.00006
 868.54;   -5.011;  -24.162;34441.617; 0.00237; 0.00017
 869.11;  -60.010;  -61.461;34366.289; 0.00018; 0.00001
 869.67;  -24.910;  -42.861;34234.863; 0.00225; 0.00016
 870.23;  -34.509;  -40.861;34228.133; 0.00080; 0.00006
 870.80;  -26.608;  -52.761;33878.707; 0.00333; 0.00024
 871.36;  -44.308;  -63.361;33584.379; 0.00246; 0.00018
 871.92;   42.393;    8.139;33514.352; 0.00444; 0.00032
 872.48;  -67.407;  -60.360;33352.023;-0.00092;-0.00007
 873.05;  -15.706;  -35.560;33107.297; 0.00261; 0.00019
 873.61;  -27.906;  -45.160;33006.969; 0.00228; 0.00017
 874.17;  -18.905;  -40.060;32897.238; 0.00281; 0.00021
 874.74;  -37.705;  -53.560;32747.340; 0.00211; 0.00015
 875.30;  -10.605;  -37.760;32872.738; 0.00362; 0.00027
 875.86;  -36.505;  -51.360;32962.238; 0.00198; 0.00015
 876.42;  -44.505;  -67.560;32924.941; 0.00309; 0.00023
 876.99;  -24.505;  -48.260;32876.039; 0.00319; 0.00023
 877.55;  -28.005;  -37.360;32981.738; 0.00125; 0.00009
 878.11;  -13.305;  -22.860;32831.238; 0.00129; 0.00009
 878.68;  -20.605;  -32.460;32682.740; 0.00160; 0.00012
 879.24;  -15.505;  -39.460;32631.039; 0.00325; 0.00024
 879.80;   -3.305;  -20.160;32451.240; 0.00230; 0.00017
 880.36;  -14.705;  -46.060;32387.539; 0.00429; 0.00032
 880.92;   -8.405;  -26.660;32337.240; 0.00250; 0.00018
 881.49;  -12.605;  -40.960;32357.840; 0.00390; 0.00029
 882.05;  -21.005;  -23.460;32220.439; 0.00034; 0.00003
 882.61;   34.195;   10.040;32083.240; 0.00335; 0.00025
 883.17;  -19.105;  -41.360;32091.740; 0.00310; 0.00023
 883.74;  -18.705;  -34.960;32096.439; 0.00228; 0.00017
 884.30;  -39.605;  -64.260;31958.539; 0.00346; 0.00026
 884.86;   16.695;   -1.260;32176.439; 0.00251; 0.00019
 885.42;  -20.705;  -51.460;32150.439; 0.00432; 0.00032
 885.98;  -53.805;  -57.160;32145.740; 0.00047; 0.00003
 886.55;   -4.805;  -37.560;32321.740; 0.00458; 0.00034
 887.11;   -2.305;  -30.260;32423.840; 0.00390; 0.00029
 887.67;  -13.005;  -20.460;32421.840; 0.00104; 0.00008
 888.23;  -45.705;  -65.360;32570.340; 0.00273; 0.00020
 888.79;   -3.505;  -21.260;32596.740; 0.00247; 0.00018
 889.35;  -48.205;  -61.160;32642.240; 0.00180; 0.00013
 889.92;    9.795;  -17.060;32765.641; 0.00373; 0.00028
 890.48;  150.695;  103.240;32825.039; 0.00657; 0.00049
 891.04;  -33.005;  -43.860;32990.238; 0.00150; 0.00011
 891.60;  -45.805;  -53.960;33047.441; 0.00112; 0.00008
 892.16;   -6.905;  -20.360;33188.941; 0.00184; 0.00014
 892.72;  -46.405;  -52.660;33357.141; 0.00086; 0.00006
 893.29;  -42.405;  -67.860;33494.738; 0.00346; 0.00026
 893.85;  -44.405;  -38.260;33665.738;-0.00083;-0.00006
 894.41;  -54.005;  -50.860;33926.641;-0.00043;-0.00003
 894.97;    6.495;  -10.160;33988.340; 0.00225; 0.00017
 895.53;  -43.805;  -52.860;34219.238; 0.00122; 0.00009
 896.09;  -33.805;  -52.360;34269.340; 0.00249; 0.00019
 896.65;  -37.105;  -45.760;34260.641; 0.00116; 0.00009
 897.21;  -12.905;  -11.360;34229.039;-0.00021;-0.00002
 897.77;  -18.105;  -39.360;34355.941; 0.00286; 0.00021
 898.34;  -24.105;  -35.160;34076.141; 0.00149; 0.00011
 898.90;    4.595;  -22.960;33978.840; 0.00374; 0.00028
 899.46;    2.895;  -22.260;34144.141; 0.00342; 0.00026
 900.02;   22.695;    5.240;33674.641; 0.00239; 0.00018
 900.58;  -10.605;  -25.260;33671.941; 0.00202; 0.00015
 901.14;   42.095;   11.740;33538.441; 0.00421; 0.00032
 901.70;    3.895;  -14.960;33275.141; 0.00263; 0.00020
 902.26;  -43.005;  -55.160;33006.840; 0.00171; 0.00013
 902.82;   20.495;   -4.560;33014.641; 0.00354; 0.00027
 903.38;  -28.505;  -45.360;32705.539; 0.00240; 0.00018
 903.94;    4.095;  -10.360;32674.340; 0.00208; 0.00016
 904.50;  -13.305;  -32.260;32451.039; 0.00274; 0.00021
 905.06;  -10.105;  -40.660;32229.039; 0.00444; 0.00034
 905.62;   -2.305;  -22.960;31916.439; 0.00303; 0.00023
 906.18;  -16.205;  -39.760;31805.539; 0.00347; 0.00026
 906.74;  -56.705;  -67.460;31546.039; 0.00160; 0.00012
 907.30;   20.395;   -3.160;31284.939; 0.00353; 0.00027
 907.86;   12.495;   -7.460;31088.240; 0.00301; 0.00023
 908.42;   23.695;   20.040;30928.240; 0.00055; 0.00004
 908.98;   23.095;    4.940;30791.240; 0.00278; 0.00021
 909.54;   -4.605;  -10.960;30862.939; 0.00098; 0.00007
 910.10;   22.595;    7.340;30640.740; 0.00236; 0.00018
 910.66;    6.095;  -22.660;30446.240; 0.00448; 0.00034
 911.22;    4.595;  -22.860;30321.141; 0.00430; 0.00033
 911.78;  -47.705;  -62.760;29941.939; 0.00238; 0.00018
 912.34;    9.295;    0.540;29914.439; 0.00139; 0.00011
 912.90;   33.495;    8.240;29777.039; 0.00404; 0.00031
 913.46;  -37.705;  -57.660;29485.039; 0.00322; 0.00025
 914.02;  -21.105;  -50.860;29482.439; 0.00481; 0.00037
 914.58;  -12.705;  -34.560;29279.641; 0.00354; 0.00027
 915.14;  -29.305;  -39.560;29122.939; 0.00167; 0.00013
 915.70;  -16.305;  -26.460;29026.539; 0.00167; 0.00013
 916.26;   -0.205;  -11.060;28810.641; 0.00179; 0.00014
 916.82;  -33.905;  -53.760;28635.939; 0.00330; 0.00025
 917.38;   36.495;   -4.360;28403.039; 0.00684; 0.00052
 917.94;  109.295;   77.740;28214.240; 0.00532; 0.00041
 918.50;  -31.805;  -43.160;28052.641; 0.00192; 0.00015
 919.06;    7.895;  -12.660;27890.340; 0.00351; 0.00027
 919.62;  -21.205;  -44.260;27654.439; 0.00397; 0.00031
 920.18;    1.195;  -19.560;27634.840; 0.00357; 0.00027
 920.73;  -22.905;  -28.760;27550.340; 0.00101; 0.00008
 921.29;  -20.005;  -39.960;27017.641; 0.00349; 0.00027
 921.85;   12.795;  -19.360;27000.840; 0.00567; 0.00044
 922.41;  -30.605;  -48.960;26863.840; 0.00324; 0.00025
 922.97;  -15.105;  -28.260;26599.539; 0.00235; 0.00018
 923.53;   34.495;    6.840;26105.939; 0.00497; 0.00038
 924.09;  -27.205;  -39.960;26005.141; 0.00231; 0.00018
 924.65;  -11.505;  -44.460;25817.740; 0.00603; 0.00047
 925.21;  -20.205;  -38.360;25588.039; 0.00335; 0.00026
 925.76;  -23.105;  -37.160;25424.439; 0.00261; 0.00020
 926.32;   12.295;  -18.460;25229.539; 0.00573; 0.00044
 926.88;  -11.705;  -26.860;25060.340; 0.00284; 0.00022
 927.44;   -8.105;  -30.560;24711.039; 0.00426; 0.00033
 928.00;  142.095;  103.140;24361.641; 0.00746; 0.00058
 928.56;   -0.805;  -24.160;24109.539; 0.00450; 0.00035
 929.12;  -15.505;  -22.460;23807.740; 0.00135; 0.00011
 929.67;   34.095;   11.240;23666.840; 0.00447; 0.00035
 930.23;  -30.605;  -44.060;23355.141; 0.00265; 0.00021
 930.79;    5.795;  -22.260;22957.439; 0.00560; 0.00044
 931.35;  -13.105;  -33.760;22612.039; 0.00416; 0.00032
 931.91;  -25.805;  -43.460;22275.939; 0.00360; 0.00028
 932.46;   18.895;  -17.460;21815.141; 0.00751; 0.00059
 933.02;  -29.305;  -44.760;21264.539; 0.00324; 0.00025
 933.58;  -37.505;  -48.760;20844.740; 0.00241; 0.00019
 934.14;  -54.705;  -75.860;20402.141; 0.00461; 0.00036
 934.70;  -34.405;  -52.060;19642.840; 0.00395; 0.00031
 935.25;  -15.405;  -32.560;19307.439; 0.00392; 0.00031
 935.81;   81.795;   46.540;18676.840; 0.00832; 0.00065
 936.37;  -16.305;  -41.860;17979.240; 0.00622; 0.00049
 936.93;    8.495;    4.940;17501.539; 0.00090; 0.00007
 937.49;   -6.605;  -33.060;16906.439; 0.00694; 0.00054
 938.04;  -13.605;  -27.860;16194.840; 0.00391; 0.00031
 938.60;  -42.305;  -49.460;15755.940; 0.00203; 0.00016
 939.16;  -25.805;  -41.560;15186.640; 0.00463; 0.00036
 939.72;  -43.705;  -45.660;14717.140; 0.00059; 0.00005
 940.27;   40.295;    5.340;14265.840; 0.01097; 0.00086
 940.83;  -29.805;  -30.960;14046.340; 0.00037; 0.00003
 941.39;  -10.705;  -21.960;13687.040; 0.00370; 0.00029
 941.94;  -44.505;  -74.960;13350.740; 0.01023; 0.00081
 942.50;  -23.305;  -32.560;13158.740; 0.00315; 0.00025
 943.06;    2.995;    5.340;13027.240;-0.00081;-0.00006
 943.62;   27.495;    9.540;12943.740; 0.00619; 0.00049
 944.17;    5.295;  -21.460;12754.540; 0.00929; 0.00073
 944.73;   58.995;   20.940;12761.440; 0.01320; 0.00104
 945.29;   21.895;  -10.860;12770.440; 0.01132; 0.00089
 945.84;  -44.005;  -58.560;12694.340; 0.00502; 0.00040
 946.40;  -52.305;  -63.660;12711.140; 0.00387; 0.00031
 946.96;   14.195;    1.240;12656.240; 0.00441; 0.00035
 947.52;  -26.605;  -40.660;12695.840; 0.00475; 0.00038
 948.07;  -15.205;  -35.260;12718.240; 0.00671; 0.00053
 948.63;   46.195;   21.340;12818.540; 0.00824; 0.00065
 949.19;    1.795;  -30.760;12749.440; 0.01069; 0.00085
 949.74;  -72.105;  -80.460;12760.940; 0.00272; 0.00022
 950.30;    3.795;  -30.260;12769.340; 0.01097; 0.00087
 950.85;   10.695;  -22.260;12864.940; 0.01054; 0.00084
 951.41;  -40.905;  -58.160;12893.340; 0.00546; 0.00043
 951.97;   26.995;    5.540;12921.640; 0.00671; 0.00053
 952.52;   -4.505;  -11.260;12865.640; 0.00210; 0.00017
 953.08;  -19.105;  -37.660;12883.640; 0.00572; 0.00046
 953.64;   -3.705;  -29.560;12846.440; 0.00790; 0.00063
 954.19;   21.495;   -1.760;12893.040; 0.00704; 0.00056
 954.75;   34.995;   10.140;12872.140; 0.00749; 0.00060
 955.31;   36.395;    8.440;12867.940; 0.00835; 0.00067
 955.86;  -27.305;  -51.160;12774.540; 0.00709; 0.00057
 956.42;  -29.705;  -47.560;12672.940; 0.00529; 0.00042
 956.97;  -32.705;  -60.260;12694.140; 0.00812; 0.00065
 957.53;  -25.505;  -30.260;12611.240; 0.00140; 0.00011
 958.09;   -6.605;  -20.760;12552.340; 0.00415; 0.00033
 958.64;   -6.805;  -20.260;12570.040; 0.00393; 0.00031
 959.20;   16.795;  -21.960;12548.940; 0.01126; 0.00090
 959.75;  -10.505;  -29.960;12427.440; 0.00567; 0.00045
 960.31;  -15.605;  -33.860;12418.840; 0.00529; 0.00042
 960.86;   59.495;   19.440;12464.640; 0.01159; 0.00093
 961.42;   -0.105;  -29.560;12414.340; 0.00853; 0.00069
 961.98;  -40.605;  -50.460;12345.240; 0.00286; 0.00023
 962.53;   -8.905;  -42.460;12397.740; 0.00974; 0.00078
 963.09;   47.395;   11.640;12366.040; 0.01034; 0.00083
 963.64;   27.295;    6.040;12375.340; 0.00616; 0.00050
 964.20;  -52.105;  -62.260;12267.840; 0.00294; 0.00024
 964.75;  -16.505;  -24.260;12291.440; 0.00225; 0.00018
 965.31;  -54.505;  -74.160;12248.040; 0.00573; 0.00046
 965.86;  -24.605;  -36.360;12229.140; 0.00342; 0.00028
 966.42;   42.895;   34.440;12234.340; 0.00248; 0.00020
 966.97;   38.195;    3.540;12259.840; 0.01013; 0.00082
 967.53;  -10.805;  -22.060;12095.440; 0.00331; 0.00027
 968.08;  -31.305;  -47.460;12157.440; 0.00476; 0.00038
 968.64;   27.595;   -7.160;12042.340; 0.01029; 0.00083
 969.19;   15.395;   -3.160;12075.540; 0.00551; 0.00045
 969.75;   31.895;   14.040;12006.840; 0.00529; 0.00043
 970.30;    2.795;   -8.460;12064.140; 0.00335; 0.00027
 970.86;   12.195;   -6.260;11971.840; 0.00551; 0.00045
 971.41;    3.395;  -25.960;11845.240; 0.00885; 0.00072
 971.97;    5.195;  -14.860;11835.640; 0.00605; 0.00049
 972.52;  -43.905;  -55.660;11665.740; 0.00357; 0.00029
 973.08;   29.395;   18.540;11714.240; 0.00331; 0.00027
 973.63;   65.295;   39.540;11663.040; 0.00787; 0.00064
 974.19;    7.895;   -9.060;11593.140; 0.00521; 0.00042
 974.74;    7.495;  -14.360;11666.640; 0.00675; 0.00055
 975.29;  287.195;  203.340;11620.240; 0.02600; 0.00212
 975.85;   64.595;   32.040;11558.040; 0.01014; 0.00083
 976.40;   33.895;    8.740;11484.040; 0.00792; 0.00065
 976.96;   35.395;    4.240;11406.940; 0.00985; 0.00080
 977.51;  -13.305;  -29.860;11398.840; 0.00525; 0.00043
 978.07;  -13.805;  -31.760;11290.240; 0.00573; 0.00047
 978.62;   22.695;    1.440;11281.240; 0.00684; 0.00056
 979.17;  387.795;  273.840;11228.340; 0.03679; 0.00301
 979.73;  -33.705;  -36.360;11150.440; 0.00086; 0.00007
 980.28;   25.495;    6.440;11178.640; 0.00622; 0.00051
 980.84;   14.895;    7.040;11049.840; 0.00259; 0.00021
 981.39;  -14.305;  -30.960;11067.040; 0.00551; 0.00045
 981.94;    9.095;    4.640;10985.940; 0.00148; 0.00012
 982.50;   10.495;  -14.560;10875.540; 0.00841; 0.00069
 983.05;   14.695;   -3.160;10793.640; 0.00603; 0.00050
 983.60;   64.795;   45.340;10866.340; 0.00660; 0.00054
 984.16;   29.095;   18.140;10723.040; 0.00376; 0.00031
 984.71;   33.595;    0.140;10737.640; 0.01152; 0.00095
 985.27;   -8.705;  -30.160;10610.940; 0.00748; 0.00062
 985.82;   24.595;    5.540;10600.940; 0.00668; 0.00055
 986.37;   27.295;   20.340;10579.940; 0.00246; 0.00020
 986.93;   16.195;   -7.560;10493.140; 0.00845; 0.00070
 987.48;  -20.805;  -38.060;10429.940; 0.00618; 0.00051
 988.03;    5.595;  -12.360;10433.640; 0.00647; 0.00053
 988.59;   -4.705;  -21.760;10379.140; 0.00616; 0.00051
 989.14;   29.695;   -6.160;10316.040; 0.01318; 0.00109
 989.69;   -6.005;  -20.160;10319.540; 0.00523; 0.00043
 990.24;  -11.205;  -22.960;10192.540; 0.00439; 0.00036
 990.80;  -20.205;  -35.660;10144.240; 0.00582; 0.00048
 991.35;  -28.805;  -51.160;10015.240; 0.00849; 0.00070
 991.90;   22.995;    1.340;10114.540; 0.00825; 0.00068
 992.46;   -6.705;  -37.460;10020.740; 0.01186; 0.00098
 993.01;  -15.205;  -36.260; 9927.640; 0.00817; 0.00068
 993.56;  189.695;  119.940; 9917.940; 0.02735; 0.00227
 994.11;    3.895;  -11.460; 9840.440; 0.00608; 0.00050
 994.67;   -3.705;  -21.260; 9785.640; 0.00701; 0.00058
 995.22;   -1.705;  -30.460; 9703.340; 0.01159; 0.00096
 995.77;   -7.605;  -38.960; 9635.340; 0.01274; 0.00106
 996.33;   15.295;   -4.560; 9637.840; 0.00813; 0.00068
 996.88;  -14.005;  -27.760; 9517.540; 0.00567; 0.00047
 997.43;  -20.805;  -28.760; 9472.340; 0.00332; 0.00028
 997.98;   39.595;    3.140; 9370.640; 0.01538; 0.00128
 998.53;   37.995;   21.740; 9336.240; 0.00693; 0.00058
 999.09;   -4.005;  -30.660; 9233.940; 0.01149; 0.00096
 999.64;  -21.705;  -51.060; 9121.140; 0.01278; 0.00107
1000.19;   -6.805;  -44.160; 9086.640; 0.01642; 0.00137
1000.74;  -41.205;  -57.060; 9052.540; 0.00706; 0.00059
1001.30;  -15.405;  -19.160; 8993.240; 0.00169; 0.00014
1001.85;    0.095;  -25.660; 8888.440; 0.01171; 0.00098
1002.40;  -21.405;  -49.260; 8808.140; 0.01286; 0.00108
1002.95;   22.195;    2.840; 8765.740; 0.00903; 0.00076
1003.50;   42.295;   15.340; 8714.040; 0.01282; 0.00107
1004.06;    3.295;  -28.160; 8593.740; 0.01523; 0.00128
1004.61;  166.395;  109.140; 8532.040; 0.02819; 0.00237
1005.16;  217.095;  142.040; 8522.340; 0.03739; 0.00314
1005.71;   30.195;   -2.660; 8537.740; 0.01654; 0.00139
1006.26;   -0.505;  -31.660; 8503.640; 0.01590; 0.00134
1006.81;  -32.405;  -57.860; 8549.940; 0.01308; 0.00110
1007.37;   -1.705;  -12.460; 8518.340; 0.00559; 0.00047
1007.92;  -30.405;  -58.960; 8547.040; 0.01487; 0.00125
1008.47;    7.895;   -9.560; 8650.340; 0.00908; 0.00077
1009.02;   13.995;  -14.960; 8730.740; 0.01507; 0.00127
1009.57;   36.695;    5.940; 8770.540; 0.01584; 0.00134
1010.12;  -42.405;  -70.360; 8819.940; 0.01421; 0.00120
1010.67;   22.495;   -4.160; 8938.440; 0.01328; 0.00112
1011.22;   31.295;    5.640; 9023.540; 0.01250; 0.00106
1011.78;  -24.205;  -42.460; 9062.440; 0.00873; 0.00074
1012.33;  -31.105;  -45.560; 9068.940; 0.00680; 0.00058
1012.88;   60.695;   28.740; 9182.740; 0.01484; 0.00126
1013.43;   19.995;  -11.760; 9165.640; 0.01474; 0.00125
1013.98;   37.195;    6.840; 9256.140; 0.01410; 0.00120
1014.53;  -15.905;  -34.460; 9202.140; 0.00872; 0.00074
1015.08;  -26.305;  -44.660; 9159.840; 0.00874; 0.00074
1015.63;  -18.105;  -38.860; 9075.540; 0.01006; 0.00085
1016.18;  -35.205;  -49.160; 9064.740; 0.00688; 0.00058
1016.73;   41.695;    1.040; 8920.440; 0.02052; 0.00174
1017.28;  110.295;   59.040; 8837.240; 0.02636; 0.00224
1017.84;   -9.805;  -23.560; 8738.740; 0.00718; 0.00061
1018.39;    2.595;  -27.260; 8609.540; 0.01594; 0.00136
1018.94;  -39.405;  -47.760; 8503.540; 0.00454; 0.00039
1019.49;   53.195;   14.140; 8362.940; 0.02172; 0.00185
1020.04;   68.595;   26.240; 8286.340; 0.02397; 0.00204
1020.59;   -1.605;  -34.360; 8098.540; 0.01891; 0.00161
1021.14;    5.795;  -19.960; 8089.340; 0.01511; 0.00129
1021.69;  -24.605;  -47.960; 7874.640; 0.01395; 0.00119
1022.24;   -8.405;  -27.460; 7839.140; 0.01157; 0.00099
1022.79;   29.795;   11.940; 7670.040; 0.01101; 0.00094
1023.34;   12.095;  -24.560; 7596.740; 0.02299; 0.00197
1023.89;    2.495;  -12.960; 7513.240; 0.00989; 0.00085
1024.44;    2.895;  -15.060; 7382.240; 0.01165; 0.00100
1024.99;   39.095;    0.040; 7310.940; 0.02578; 0.00221
1025.54;   72.895;   33.840; 7213.140; 0.02612; 0.00224
1026.09;  -24.205;  -34.860; 7156.540; 0.00724; 0.00062
1026.64;  -15.305;  -36.260; 7033.140; 0.01451; 0.00125
1027.19;   19.995;    6.240; 6951.540; 0.00971; 0.00083
1027.74;  -14.805;  -25.360; 6898.540; 0.00753; 0.00065
1028.29;   -2.805;  -39.360; 6785.340; 0.02665; 0.00229
1028.84;   84.295;   41.840; 6689.140; 0.03140; 0.00270
1029.39;   28.495;    3.440; 6693.440; 0.01870; 0.00161
1029.94;  -15.705;  -45.260; 6563.140; 0.02251; 0.00194
1030.48;  -13.805;  -47.960; 6489.840; 0.02627; 0.00226
1031.03;  -19.805;  -33.460; 6408.040; 0.01076; 0.00093
1031.58;   23.295;   -4.360; 6390.940; 0.02206; 0.00190
1032.13;  -39.105;  -46.760; 6251.740; 0.00621; 0.00054
1032.68;   -5.305;  -40.060; 6173.540; 0.02869; 0.00248
1033.23;  -25.705;  -40.760; 6056.340; 0.01256; 0.00108
1033.78;   -3.705;  -34.060; 5982.840; 0.02577; 0.00223
1034.33;    2.495;  -18.960; 5956.340; 0.01848; 0.00160
1034.88;   64.095;   24.240; 5884.440; 0.03480; 0.00301
1035.43;  -30.605;  -43.260; 5797.040; 0.01125; 0.00097
1035.98;    8.795;  -24.560; 5726.840; 0.03010; 0.00261
1036.52;   34.995;   -7.860; 5703.140; 0.03924; 0.00340
1037.07;   29.295;   12.340; 5634.340; 0.01579; 0.00137
1037.62;   32.895;   -7.260; 5538.840; 0.03789; 0.00329
1038.17;  137.995;   72.140; 5465.440; 0.06308; 0.00547
1038.72;   -7.905;  -21.960; 5419.540; 0.01369; 0.00119
1039.27;   -3.005;  -19.060; 5313.940; 0.01592; 0.00138
1039.82;   19.695;   -9.760; 5277.140; 0.02975; 0.00259
1040.37;  -27.605;  -47.360; 5173.340; 0.02023; 0.00176
1040.91;  -18.005;  -44.660; 5135.140; 0.02770; 0.00241
1041.46;   -9.205;  -29.060; 5014.240; 0.02104; 0.00183
1042.01;  -31.205;  -49.760; 4962.740; 0.01991; 0.00173
1042.56;   -4.405;  -31.860; 4871.240; 0.03004; 0.00262
1043.11;    9.395;   -9.360; 4860.340; 0.02077; 0.00181
1043.66;   65.495;   24.240; 4779.540; 0.04649; 0.00405
1044.20;   25.395;    2.340; 4738.440; 0.02645; 0.00231
1044.75;   41.995;   14.740; 4683.040; 0.03181; 0.00278
1045.30;   66.895;   24.540; 4585.740; 0.05020; 0.00439
1045.85;   10.695;  -25.760; 4510.240; 0.04389; 0.00384
1046.40;  -23.105;  -35.760; 4447.940; 0.01552; 0.00136
1046.94;   -5.105;  -26.260; 4426.440; 0.02638; 0.00231
1047.49;   19.795;  -23.660; 4272.140; 0.05513; 0.00483
1048.04;   65.995;   37.540; 4311.640; 0.03646; 0.00319
1048.59;   -3.205;  -42.360; 4233.240; 0.05124; 0.00449
1049.13;  138.195;   81.140; 4211.040; 0.07593; 0.00666
1049.68;   -8.805;  -49.960; 4059.940; 0.05608; 0.00492
1050.23;   23.095;   -0.060; 4062.640; 0.03187; 0.00280
1050.78;  -37.505;  -55.560; 3990.540; 0.02525; 0.00222
1051.32;  -11.805;  -29.060; 3946.840; 0.02453; 0.00216
1051.87;  275.595;  172.040; 3869.840; 0.15020; 0.01320
1052.42;   -0.205;  -12.460; 3825.340; 0.01808; 0.00159
1052.97;  229.695;  152.740; 3792.340; 0.11468; 0.01009
1053.51;   -0.405;  -20.360; 3734.840; 0.03028; 0.00267
1054.06;   49.895;   16.740; 3661.740; 0.05101; 0.00449
1054.61;   13.695;    5.140; 3613.040; 0.01345; 0.00119
1055.16;  -22.705;  -44.160; 3555.440; 0.03407; 0.00300
1055.70;    7.995;  -25.860; 3441.340; 0.05521; 0.00487
1056.25;  -41.505;  -59.060; 3388.740; 0.02916; 0.00257
1056.80;    2.095;  -37.360; 3359.040; 0.06634; 0.00586
1057.34;  -29.505;  -46.760; 3323.340; 0.02948; 0.00261
1057.89;   -2.005;  -38.760; 3294.340; 0.06372; 0.00563
1058.44;   39.595;    3.040; 3243.440; 0.06431; 0.00569
1058.98;  -15.905;  -34.660; 3181.040; 0.03368; 0.00298
1059.53;    8.995;  -18.360; 3089.840; 0.04998; 0.00443
1060.08;   15.795;  -21.560; 3095.640; 0.06949; 0.00616
1060.62;  128.795;   80.440; 3037.940; 0.09104; 0.00807
1061.17;  -21.905;  -35.060; 2981.040; 0.02520; 0.00224
1061.72;    7.095;  -17.560; 2925.640; 0.04816; 0.00427
1062.26;   31.795;    0.640; 2887.140; 0.06197; 0.00550
1062.81;   37.995;    2.640; 2868.640; 0.07183; 0.00638
1063.36;   12.495;   -3.960; 2810.640; 0.03390; 0.00301
1063.90;   16.195;    2.840; 2776.140; 0.02808; 0.00250
1064.45;   11.595;  -15.760; 2733.940; 0.05850; 0.00520
1064.99;    7.195;  -21.260; 2665.640; 0.06201; 0.00552
1065.54;    9.095;  -27.260; 2665.140; 0.08051; 0.00717
1066.09;   29.395;    1.540; 2624.740; 0.06282; 0.00560
1066.63;   15.495;   -4.460; 2613.240; 0.04559; 0.00406
1067.18;   85.595;   50.140; 2546.940; 0.08294; 0.00740
1067.72;   14.795;   -8.860; 2507.940; 0.05618; 0.00501
1068.27;   -6.305;  -31.060; 2435.040; 0.05953; 0.00532
1068.82;   60.695;   24.740; 2427.340; 0.08804; 0.00786
1069.36;   22.195;   -1.560; 2384.540; 0.05909; 0.00528
1069.91;   -3.005;  -27.160; 2395.540; 0.06070; 0.00543
1070.45;   17.595;   -9.660; 2355.540; 0.06979; 0.00624
1071.00;  -16.105;  -43.760; 2277.640; 0.07171; 0.00642
1071.54;   11.695;  -14.260; 2266.040; 0.06850; 0.00613
1072.09;   91.895;   61.540; 2286.540; 0.08143; 0.00730
1072.64;    6.595;   -2.360; 2225.240; 0.02447; 0.00219
1073.18;  112.595;   75.840; 2212.340; 0.10119; 0.00908
1073.73;  184.395;  126.340; 2142.340; 0.16274; 0.01460
1074.27;    4.695;  -35.860; 2113.340; 0.11471; 0.01030
1074.82;   52.395;    9.440; 2108.140; 0.12361; 0.01110
1075.36;   38.895;    9.140; 2087.140; 0.08705; 0.00782
1075.91;   38.695;    4.140; 2074.740; 0.10248; 0.00922
1076.45;   40.495;   13.340; 2031.240; 0.08149; 0.00733
1077.00;    3.795;  -14.560; 1990.740; 0.05589; 0.00503
1077.54;   43.395;   19.840; 2002.540; 0.07290; 0.00656
1078.09;   40.295;   22.840; 1946.540; 0.05457; 0.00492
1078.63;   -9.005;  -33.660; 1925.340; 0.07819; 0.00705
1079.18;   14.795;  -25.660; 1902.340; 0.13049; 0.01177
1079.72;   54.295;    8.540; 1872.140; 0.14927; 0.01347
1080.27;    3.095;  -28.260; 1833.740; 0.10399; 0.00939
1080.81;    9.795;  -27.660; 1806.540; 0.12575; 0.01136
1081.36;  -25.705;  -49.360; 1759.940; 0.08080; 0.00730
1081.90;   96.595;   47.640; 1773.640; 0.16932; 0.01531
1082.44;   65.795;   23.340; 1742.540; 0.14947; 0.01352
1082.99;   42.995;   14.540; 1720.040; 0.10133; 0.00917
1083.53;    9.995;  -15.760; 1669.840; 0.09318; 0.00844
1084.08;   41.795;   12.140; 1694.940; 0.10866; 0.00985
1084.62;   21.995;   11.540; 1650.140; 0.03900; 0.00353
1085.17;   29.595;   -6.960; 1644.640; 0.13694; 0.01242
1085.71;   -4.805;  -16.460; 1604.940; 0.04435; 0.00402
1086.25;   36.595;   13.040; 1614.040; 0.09117; 0.00828
1086.80;   38.095;   10.940; 1558.740; 0.10704; 0.00972
1087.34;   25.795;    0.740; 1549.140; 0.09971; 0.00906
1087.89;   -4.905;  -21.460; 1518.340; 0.06683; 0.00608
1088.43;   25.995;   12.440; 1515.840; 0.05543; 0.00504
1088.97;   24.395;    3.040; 1494.940; 0.08863; 0.00807
1089.52;  235.995;  167.440; 1492.140; 0.28874; 0.02629
1090.06;  115.695;   65.840; 1451.240; 0.21254; 0.01936
1090.61;   33.495;    6.040; 1435.740; 0.11932; 0.01088
1091.15;  201.895;  140.040; 1394.140; 0.27316; 0.02491
1091.69;   39.495;   17.840; 1365.740; 0.09704; 0.00885
1092.24;   32.595;    9.140; 1368.940; 0.10668; 0.00974
1092.78;   61.695;   28.540; 1337.940; 0.15374; 0.01404
1093.32;   44.695;   11.840; 1350.740; 0.15223; 0.01391
1093.87;   52.595;   16.840; 1327.440; 0.16965; 0.01551
1094.41;   14.295;  -11.260; 1272.140; 0.12282; 0.01123
1094.95;  168.395;  110.440; 1282.440; 0.28155; 0.02577
1095.50;   -3.305;  -27.860; 1250.140; 0.12202; 0.01117
1096.04;   59.895;   45.340; 1268.140; 0.07285; 0.00667
1096.58;  181.095;  134.540; 1217.440; 0.23647; 0.02167
1097.13;   -2.905;  -25.860; 1182.740; 0.11798; 0.01082
1097.67;   86.695;   49.940; 1204.340; 0.19229; 0.01764
1098.21;    4.695;  -16.960; 1162.040; 0.11469; 0.01053
1098.76;   11.195;   -2.160; 1142.840; 0.07176; 0.00659
1099.30;   20.295;  -14.060; 1130.140; 0.18647; 0.01713
1099.84;   -4.205;  -25.760; 1116.240; 0.11898; 0.01094
1100.38;   59.195;   25.840; 1094.240; 0.18643; 0.01715

