
Integration time [ms]: 500.000
Averaging Nr. [scans]: 10
Smoothing Nr. [pixels]: 0
Data measured with spectrometer [name]: 1901096U1
Wave   ;Sample   ;Dark     ;Reference;Absolute Irradiance  ;Photon Counts
[nm]   ;[counts] ;[counts] ;[counts] ;[µWatt/cm?/nm]       ;[µMol/s/m?/nm]

 155.82;  238.923;  234.880;   69.357; 0.00000; 0.00000
 156.42;  266.225;  261.980;   98.706; 0.00000; 0.00000
 157.03;  239.025;  238.080;   92.018; 0.00000; 0.00000
 157.63;  213.325;  218.080;   78.786; 0.00000; 0.00000
 158.23;  235.225;  240.980;   94.680; 0.00000; 0.00000
 158.84;  262.326;  262.780;  119.574; 0.00000; 0.00000
 159.44;  232.124;  238.980;   82.550; 0.00000; 0.00000
 160.04;  252.724;  250.480;  102.110; 0.00000; 0.00000
 160.64;  313.824;  317.680;   93.044; 0.00000; 0.00000
 161.25;  265.025;  258.280;  112.923; 0.00000; 0.00000
 161.85;  298.425;  276.380;  109.378; 0.00000; 0.00000
 162.45;  247.524;  249.180;   90.607; 0.00000; 0.00000
 163.06;  274.624;  270.880;   94.943; 0.00000; 0.00000
 163.66;  287.726;  274.180;   96.745; 0.00000; 0.00000
 164.26;  241.423;  229.780;   70.019; 0.00000; 0.00000
 164.86;  243.123;  237.380;  112.245; 0.00000; 0.00000
 165.47;  249.110;  263.980;  144.771; 0.00000; 0.00000
 166.07;  251.210;  255.980;  171.417; 0.00000; 0.00000
 166.67;  252.009;  242.980;  157.886; 0.00000; 0.00000
 167.27;  251.110;  252.980;  165.443; 0.00000; 0.00000
 167.88;  266.809;  268.480;  176.084; 0.00000; 0.00000
 168.48;  311.609;  313.180;  149.416; 0.00000; 0.00000
 169.08;  280.909;  274.680;  149.165; 0.00000; 0.00000
 169.68;  279.211;  279.880;  196.226; 0.00000; 0.00000
 170.29;  311.509;  304.580;  174.114; 0.00000; 0.00000
 170.89;  274.109;  272.480;  182.177; 0.00000; 0.00000
 171.49;  300.909;  301.680;  158.870; 0.00000; 0.00000
 172.09;  267.210;  257.180;  197.793; 0.00000; 0.00000
 172.70;  278.508;  271.980;  178.950; 0.00000; 0.00000
 173.30;  336.009;  345.380;  192.313; 0.00000; 0.00000
 173.90;  241.407;  236.980;  149.290; 0.00000; 0.00000
 174.50;  393.408;  402.580;  169.250; 0.00000; 0.00000
 175.11;  337.408;  343.380;  178.397; 0.00000; 0.00000
 175.71;  237.610;  238.780;  163.326; 0.00000; 0.00000
 176.31;  234.310;  232.680;  157.407; 0.00000; 0.00000
 176.91;  266.608;  251.680;  166.476; 0.00000; 0.00000
 177.51;  258.008;  255.280;  169.037; 0.00000; 0.00000
 178.12;  331.808;  346.180;  189.172; 0.00000; 0.00000
 178.72;  322.509;  298.280;  188.859; 0.00000; 0.00000
 179.32;  319.108;  320.080;  182.185; 0.00000; 0.00000
 179.92;  243.008;  262.080;  182.480; 0.00000; 0.00000
 180.52;  404.510;  388.080;  194.824; 0.00000; 0.00000
 181.13;  283.107;  285.980;  169.191; 0.00000; 0.00000
 181.73;  251.709;  263.680;  204.825; 0.00000; 0.00000
 182.33;  278.307;  290.780;  191.492; 0.00000; 0.00000
 182.93;  253.908;  246.680;  210.121; 0.00000; 0.00000
 183.54;  206.806;  214.080;  146.515; 0.00000; 0.00000
 184.14;  231.309;  234.080;  159.832; 0.00000; 0.00000
 184.74;  322.609;  331.080;  211.228; 0.00000; 0.00000
 185.34;  250.210;  243.480;  232.734; 0.02751; 0.00043
 185.94;  295.907;  283.380;  205.003; 0.06199; 0.00096
 186.54;  252.409;  250.980;  234.146; 0.00641; 0.00010
 187.15;  217.708;  221.480;  218.473;-0.01818;-0.00028
 187.75;  355.410;  356.080;  238.667;-0.00202;-0.00003
 188.35;  325.707;  337.480;  236.604;-0.04630;-0.00073
 188.95;  214.509;  233.480;  223.885;-0.06216;-0.00098
 189.55;  212.808;  209.580;  204.335; 0.01227; 0.00019
 190.16;  290.108;  300.580;  250.453;-0.04046;-0.00064
 190.76;  227.507;  232.780;  231.976;-0.01874;-0.00030
 191.36;  290.008;  286.380;  258.608; 0.01251; 0.00020
 191.96;  242.809;  249.280;  282.334;-0.01745;-0.00028
 192.56;  236.208;  220.080;  277.413; 0.04580; 0.00074
 193.16;  263.507;  255.580;  299.568; 0.02442; 0.00039
 193.77;  307.706;  312.480;  305.671;-0.01734;-0.00028
 194.37;  227.708;  220.180;  293.691; 0.01981; 0.00032
 194.97;  217.608;  212.880;  303.214; 0.01213; 0.00020
 195.57;  205.309;  218.780;  323.385;-0.02530;-0.00041
 196.17;  281.706;  287.380;  329.855;-0.02083;-0.00034
 196.77;  209.608;  225.080;  362.624;-0.03782;-0.00062
 197.38;  227.508;  228.980;  385.309;-0.00345;-0.00006
 197.98;  318.807;  310.080;  391.422; 0.02357; 0.00039
 198.58;  271.709;  249.080;  441.930; 0.04599; 0.00076
 199.18;  212.109;  211.580;  429.902; 0.00106; 0.00002
 199.78;  329.306;  345.580;  456.870;-0.05600;-0.00094
 200.38;  259.008;  251.680;  499.846; 0.01540; 0.00026
 200.98;  207.008;  179.580;  502.986; 0.04831; 0.00081
 201.59;  258.811;  255.380;  611.653; 0.00438; 0.00007
 202.19;  229.710;  222.480;  605.646; 0.01045; 0.00018
 202.79;  224.508;  225.180;  587.448;-0.00131;-0.00002
 203.39;  192.708;  185.380;  644.186; 0.01377; 0.00023
 203.99;  241.309;  247.380;  740.949;-0.00927;-0.00016
 204.59;  234.509;  253.080;  733.510;-0.03098;-0.00053
 205.19;  222.207;  224.180;  796.291;-0.00450;-0.00008
 205.79;  247.009;  235.780;  825.824; 0.01855; 0.00032
 206.40;  213.808;  219.280;  875.395;-0.00929;-0.00016
 207.00;  264.009;  234.480;  907.041; 0.04652; 0.00080
 207.60;  228.008;  226.580;  928.798; 0.00235; 0.00004
 208.20;  226.210;  225.980; 1019.353; 0.00029; 0.00001
 208.80;  215.910;  201.180; 1029.973; 0.01844; 0.00032
 209.40;  223.312;  226.280; 1141.880;-0.00313;-0.00005
 210.00;  234.709;  225.280; 1124.417; 0.01341; 0.00024
 210.60;  223.909;  218.680; 1170.175; 0.00670; 0.00012
 211.20;  319.209;  316.780; 1254.557; 0.00313; 0.00006
 211.81;  177.809;  171.280; 1237.652; 0.00833; 0.00015
 212.41;  209.111;  203.680; 1355.714; 0.00531; 0.00009
 213.01;  231.812;  219.780; 1400.416; 0.00990; 0.00018
 213.61;  193.210;  213.680; 1399.523;-0.02095;-0.00037
 214.21;  180.410;  191.880; 1517.477;-0.01055;-0.00019
 214.81;  200.811;  194.280; 1599.136; 0.00536; 0.00010
 215.41;  248.010;  238.880; 1677.966; 0.00864; 0.00016
 216.01;  280.610;  267.280; 1747.260; 0.01179; 0.00021
 216.61;  248.607;  248.080; 1794.906; 0.00072; 0.00001
 217.21;  234.512;  241.180; 1900.484;-0.00458;-0.00008
 217.81;  199.512;  187.980; 1966.536; 0.00676; 0.00012
 218.41;  203.411;  218.080; 2070.058;-0.00978;-0.00018
 219.02;  212.612;  204.280; 2134.247; 0.00461; 0.00008
 219.62;  230.611;  225.280; 2229.697; 0.00353; 0.00006
 220.22;  230.111;  235.580; 2296.000;-0.00336;-0.00006
 220.82;  201.712;  193.280; 2396.090; 0.00434; 0.00008
 221.42;  210.312;  205.380; 2534.516; 0.00232; 0.00004
 222.02;  187.212;  190.380; 2602.876;-0.00150;-0.00003
 222.62;  176.411;  171.780; 2644.667; 0.00216; 0.00004
 223.22;  191.611;  188.780; 2747.058; 0.00146; 0.00003
 223.82;  197.311;  192.380; 2851.961; 0.00236; 0.00004
 224.42;  230.411;  229.180; 2979.536; 0.00055; 0.00001
 225.02;  204.411;  219.080; 3070.857;-0.00600;-0.00011
 225.62;  197.713;  197.480; 3154.212; 0.00008; 0.00000
 226.22;  224.712;  236.080; 3251.918;-0.00425;-0.00008
 226.82;  220.312;  211.880; 3374.683; 0.00347; 0.00007
 227.42;  199.410;  196.280; 3459.925; 0.00160; 0.00003
 228.02;  220.510;  237.380; 3557.146;-0.00757;-0.00014
 228.62;  161.912;  171.880; 3720.333;-0.00358;-0.00007
 229.22;  275.912;  265.680; 3822.360; 0.00321; 0.00006
 229.82;  192.709;  194.480; 3910.707;-0.00103;-0.00002
 230.43;  219.612;  211.980; 4060.498; 0.00251; 0.00005
 231.03;  200.410;  208.180; 4165.853;-0.00307;-0.00006
 231.63;  198.110;  211.680; 4299.932;-0.00532;-0.00010
 232.23;  199.011;  194.780; 4439.690; 0.00152; 0.00003
 232.83;  205.811;  193.580; 4570.914; 0.00399; 0.00008
 233.43;  237.611;  233.780; 4679.232; 0.00120; 0.00002
 234.03;  200.211;  192.080; 4822.739; 0.00232; 0.00005
 234.63;  161.812;  160.580; 4963.625; 0.00031; 0.00001
 235.23;  216.012;  216.080; 5087.302;-0.00002; 0.00000
 235.83;  185.410;  182.380; 5158.578; 0.00090; 0.00002
 236.43;  212.609;  227.680; 5238.061;-0.00518;-0.00010
 237.03;  190.410;  182.280; 5367.267; 0.00234; 0.00005
 237.63;  321.911;  315.280; 5476.106; 0.00168; 0.00003
 238.23;  190.112;  186.180; 5557.100; 0.00086; 0.00002
 238.83;  191.912;  184.180; 5587.205; 0.00173; 0.00003
 239.43;  218.810;  214.180; 5669.235; 0.00130; 0.00003
 240.03;  213.412;  218.680; 5684.486;-0.00122;-0.00002
 240.63;  178.213;  176.880; 5805.009; 0.00024; 0.00000
 241.23;  242.311;  234.780; 5803.599; 0.00182; 0.00004
 241.83;  186.112;  200.480; 5757.283;-0.00315;-0.00006
 242.43;  202.611;  220.280; 5830.420;-0.00438;-0.00009
 243.03;  199.712;  189.980; 5665.396; 0.00193; 0.00004
 243.63;  182.011;  182.380; 5769.037;-0.00008; 0.00000
 244.23;  179.810;  177.380; 5796.819; 0.00070; 0.00001
 244.83;  173.111;  168.680; 5806.754; 0.00095; 0.00002
 245.43;  208.510;  217.080; 5823.208;-0.00217;-0.00004
 246.02;  416.311;  410.880; 5800.188; 0.00121; 0.00002
 246.62;  197.810;  200.380; 5811.522;-0.00070;-0.00001
 247.22;  170.712;  175.580; 5818.533;-0.00089;-0.00002
 247.82;  230.312;  214.880; 5941.708; 0.00276; 0.00006
 248.42;  333.311;  327.780; 5924.620; 0.00113; 0.00002
 249.02;  228.711;  222.580; 5931.763; 0.00117; 0.00002
 249.62;  180.112;  180.580; 5978.860;-0.00008; 0.00000
 250.22;  265.712;  250.480; 6035.626; 0.00263; 0.00005
 250.82;  219.611;  234.780; 6063.934;-0.00299;-0.00006
 251.42;  221.413;  218.180; 6166.982; 0.00049; 0.00001
 252.02;  168.611;  155.180; 6146.432; 0.00248; 0.00005
 252.62;  186.014;  198.580; 6316.257;-0.00166;-0.00004
 253.22;  287.611;  269.380; 6362.600; 0.00340; 0.00007
 253.82;  167.812;  179.380; 6451.444;-0.00197;-0.00004
 254.42;  185.212;  187.080; 6595.581;-0.00033;-0.00001
 255.02;  200.812;  202.880; 6709.758;-0.00028;-0.00001
 255.62;  167.112;  166.680; 6866.335; 0.00006; 0.00000
 256.22;  341.911;  342.280; 6997.500;-0.00007; 0.00000
 256.82;  190.811;  185.180; 7151.784; 0.00096; 0.00002
 257.41;  180.313;  174.580; 7263.866; 0.00074; 0.00002
 258.01;  190.711;  188.780; 7368.656; 0.00029; 0.00001
 258.61;  232.412;  231.580; 7537.434; 0.00010; 0.00000
 259.21;  171.211;  166.380; 7585.914; 0.00072; 0.00002
 259.81;  240.811;  248.980; 7627.906;-0.00123;-0.00003
 260.41;  352.111;  332.580; 7729.113; 0.00280; 0.00006
 261.01;  144.113;  157.480; 7804.604;-0.00144;-0.00003
 261.61;  185.013;  191.080; 7874.186;-0.00063;-0.00001
 262.21;  165.710;  181.480; 7809.864;-0.00222;-0.00005
 262.81;  148.911;  149.580; 7883.093;-0.00009; 0.00000
 263.41;  172.313;  192.380; 7851.264;-0.00212;-0.00005
 264.00;  434.413;  447.880; 7910.396;-0.00127;-0.00003
 264.60;  200.612;  204.680; 7832.833;-0.00041;-0.00001
 265.20;  175.212;  162.380; 7811.800; 0.00140; 0.00003
 265.80;  191.312;  180.680; 7807.390; 0.00109; 0.00002
 266.40;  201.511;  200.280; 7758.985; 0.00015; 0.00000
 267.00;  246.312;  234.480; 7744.586; 0.00124; 0.00003
 267.60;  226.912;  223.580; 7713.844; 0.00030; 0.00001
 268.20;  231.112;  234.380; 7658.534;-0.00027;-0.00001
 268.80;  148.012;  167.980; 7613.828;-0.00165;-0.00004
 269.39;  226.610;  229.880; 7639.694;-0.00038;-0.00001
 269.99;  191.511;  169.380; 7545.848; 0.00187; 0.00004
 270.59;  187.912;  194.780; 7557.185;-0.00055;-0.00001
 271.19;  165.911;  173.580; 7463.747;-0.00058;-0.00001
 271.79;  206.311;  206.080; 7430.716; 0.00002; 0.00000
 272.39;  176.811;  170.880; 7390.417; 0.00039; 0.00001
 272.99;  181.210;  170.880; 7366.798; 0.00077; 0.00002
 273.59;  160.409;  159.280; 7394.867; 0.00008; 0.00000
 274.18;  186.810;  192.780; 7372.027;-0.00036;-0.00001
 274.78;  195.309;  187.580; 7463.749; 0.00047; 0.00001
 275.38;  465.307;  450.180; 7541.064; 0.00105; 0.00002
 275.98;  165.706;  178.580; 7555.049;-0.00087;-0.00002
 276.58;  196.405;  181.980; 7679.967; 0.00096; 0.00002
 277.18;  170.006;  167.080; 7761.887; 0.00014; 0.00000
 277.78;  206.204;  198.580; 7885.197; 0.00041; 0.00001
 278.37;  153.402;  158.880; 8094.415;-0.00029;-0.00001
 278.97;  185.603;  185.480; 8236.837; 0.00000; 0.00000
 279.57;  175.801;  183.880; 8401.201;-0.00033;-0.00001
 280.17;  166.801;  166.980; 8585.075;-0.00001; 0.00000
 280.77;  185.900;  186.180; 8739.990;-0.00001; 0.00000
 281.37;  205.099;  182.780; 8921.174; 0.00078; 0.00002
 281.96;  206.396;  201.380; 9108.466; 0.00020; 0.00000
 282.56;  203.997;  204.980; 9270.274;-0.00003; 0.00000
 283.16;  218.095;  203.880; 9355.810; 0.00053; 0.00001
 283.76;  159.395;  169.680; 9505.805;-0.00034;-0.00001
 284.36;  355.994;  346.380; 9628.166; 0.00035; 0.00001
 284.95;  174.891;  179.580; 9802.511;-0.00021; 0.00000
 285.55;  205.193;  201.980; 9973.057; 0.00012; 0.00000
 286.15;  199.194;  195.180;10153.664; 0.00013; 0.00000
 286.75;  232.191;  229.080;10252.877; 0.00013; 0.00000
 287.35;  173.091;  180.180;10345.749;-0.00028;-0.00001
 287.94;  140.592;  150.180;10437.340;-0.00036;-0.00001
 288.54;  167.992;  170.180;10563.308;-0.00009; 0.00000
 289.14;  157.592;  155.480;10625.296; 0.00009; 0.00000
 289.74;  173.992;  176.480;10698.339;-0.00011; 0.00000
 290.34;  178.395;  164.780;10794.693; 0.00047; 0.00001
 290.93;  156.794;  162.080;10889.406;-0.00021;-0.00001
 291.53;  176.295;  169.180;10882.075; 0.00028; 0.00001
 292.13;  166.695;  150.280;10986.727; 0.00069; 0.00002
 292.73;  222.493;  214.180;10956.902; 0.00041; 0.00001
 293.33;  156.295;  151.380;10919.612; 0.00021; 0.00001
 293.92;  159.796;  156.580;10969.773; 0.00014; 0.00000
 294.52;  147.997;  139.580;10992.032; 0.00034; 0.00001
 295.12;  178.896;  167.280;10934.672; 0.00052; 0.00001
 295.72;  154.196;  150.480;10815.554; 0.00018; 0.00000
 296.31;  231.298;  217.180;10904.618; 0.00060; 0.00001
 296.91;  231.895;  231.780;10752.392; 0.00001; 0.00000
 297.51;  193.697;  192.480;10565.563; 0.00005; 0.00000
 298.11;  427.897;  429.780;10514.872;-0.00008; 0.00000
 298.70;  175.296;  164.180;10425.745; 0.00050; 0.00001
 299.30;  137.691;  145.080;10340.539;-0.00043;-0.00001
 299.90;  179.790;  173.580;10399.297; 0.00034; 0.00001
 300.50;  243.592;  227.680;10320.936; 0.00080; 0.00002
 301.09;  152.292;  157.280;10404.916;-0.00031;-0.00001
 301.69;  183.294;  161.180;10530.383; 0.00116; 0.00003
 302.29;  151.192;  158.780;10625.238;-0.00049;-0.00001
 302.89;  175.293;  167.180;10712.996; 0.00052; 0.00001
 303.48;  215.492;  214.480;10883.577; 0.00008; 0.00000
 304.08;  160.695;  154.680;11034.496; 0.00046; 0.00001
 304.68;  182.193;  190.580;11199.933;-0.00079;-0.00002
 305.28;  180.394;  171.980;11331.138; 0.00084; 0.00002
 305.87;  148.195;  143.380;11557.216; 0.00042; 0.00001
 306.47;  157.894;  148.680;11629.007; 0.00090; 0.00002
 307.07;  193.396;  175.980;11817.946; 0.00153; 0.00004
 307.67;  190.397;  190.680;12043.183;-0.00002; 0.00000
 308.26;  162.496;  163.780;12135.263;-0.00011; 0.00000
 308.86;  197.893;  182.180;12308.970; 0.00169; 0.00004
 309.46;  157.396;  163.480;12516.957;-0.00054;-0.00001
 310.05;  163.294;  169.580;12737.271;-0.00065;-0.00002
 310.65;  182.798;  183.080;12857.363;-0.00002; 0.00000
 311.25;  207.295;  208.880;12935.298;-0.00015; 0.00000
 311.85;  205.894;  193.480;13145.596; 0.00128; 0.00003
 312.44;  181.494;  160.880;13347.612; 0.00205; 0.00005
 313.04;  165.595;  160.080;13485.708; 0.00052; 0.00001
 313.64;  176.194;  163.580;13620.981; 0.00135; 0.00004
 314.23;  198.695;  201.080;13715.076;-0.00023;-0.00001
 314.83;  482.394;  486.080;13936.025;-0.00039;-0.00001
 315.43;  162.693;  152.180;13967.090; 0.00117; 0.00003
 316.02;  213.297;  215.380;14040.930;-0.00019; 0.00000
 316.62;  179.095;  189.580;14125.363;-0.00104;-0.00003
 317.22;  195.396;  196.580;14245.032;-0.00011; 0.00000
 317.81;  153.796;  142.680;14233.762; 0.00106; 0.00003
 318.41;  179.596;  177.180;14263.897; 0.00023; 0.00001
 319.01;  180.194;  156.180;14427.401; 0.00245; 0.00007
 319.60;  203.195;  194.780;14388.747; 0.00082; 0.00002
 320.20;  138.895;  139.480;14258.389;-0.00006; 0.00000
 320.80;  169.895;  178.980;14334.539;-0.00093;-0.00003
 321.39;  173.095;  179.780;14417.251;-0.00068;-0.00002
 321.99;  151.994;  144.880;14396.221; 0.00075; 0.00002
 322.59;  243.696;  230.080;14327.565; 0.00131; 0.00004
 323.18;  175.696;  179.280;14288.034;-0.00036;-0.00001
 323.78;  191.197;  187.580;14312.623; 0.00033; 0.00001
 324.38;  147.795;  150.680;14236.162;-0.00029;-0.00001
 324.97;  169.896;  155.380;14253.394; 0.00138; 0.00004
 325.57;  197.795;  202.080;14167.559;-0.00044;-0.00001
 326.17;  215.997;  194.080;14160.352; 0.00203; 0.00006
 326.76;  177.595;  184.180;14123.806;-0.00066;-0.00002
 327.36;  222.296;  224.280;14073.860;-0.00018;-0.00001
 327.95;  157.697;  146.080;13930.123; 0.00101; 0.00003
 328.55;  161.397;  146.680;13852.519; 0.00127; 0.00003
 329.15;  427.694;  421.380;13731.407; 0.00059; 0.00002
 329.74;  151.198;  148.180;13598.370; 0.00024; 0.00001
 330.34;  174.197;  163.680;13577.890; 0.00081; 0.00002
 330.94;  201.594;  202.580;13380.550;-0.00009; 0.00000
 331.53;  166.994;  160.680;13220.110; 0.00053; 0.00001
 332.13;  150.497;  134.480;13089.027; 0.00134; 0.00004
 332.72;  316.097;  317.980;12940.220;-0.00016; 0.00000
 333.32;  157.398;  155.580;12869.816; 0.00016; 0.00000
 333.92;  153.998;  138.080;12706.579; 0.00132; 0.00004
 334.51;  147.798;  138.480;12609.342; 0.00081; 0.00002
 335.11;  188.198;  178.080;12467.899; 0.00089; 0.00003
 335.70;  160.899;  149.980;12368.236; 0.00088; 0.00002
 336.30;  226.502;  203.580;12332.478; 0.00166; 0.00005
 336.90;  211.099;  178.180;12252.377; 0.00251; 0.00007
 337.49;  161.199;  146.480;12294.456; 0.00109; 0.00003
 338.09;  187.299;  166.380;12364.864; 0.00151; 0.00004
 338.68;  224.302;  207.380;12237.490; 0.00109; 0.00003
 339.28;  192.301;  174.680;12302.356; 0.00115; 0.00003
 339.88;  199.802;  189.280;12390.342; 0.00067; 0.00002
 340.47;  249.202;  197.280;12416.990; 0.00335; 0.00010
 341.07;  222.602;  196.480;12531.981; 0.00166; 0.00005
 341.66;  178.303;  138.380;12623.655; 0.00243; 0.00007
 342.26;  228.701;  167.980;12797.052; 0.00378; 0.00011
 342.85;  222.002;  166.980;12937.109; 0.00317; 0.00009
 343.45;  215.104;  146.880;12984.911; 0.00365; 0.00010
 344.05;  270.600;  188.080;13082.432; 0.00447; 0.00013
 344.64;  282.495;  184.180;13194.041; 0.00500; 0.00014
 345.24;  258.184;  145.480;13265.813; 0.00558; 0.00016
 345.83;  315.978;  212.280;13312.418; 0.00517; 0.00015
 346.43;  305.883;  144.380;13468.470; 0.00683; 0.00020
 347.02;  416.184;  198.680;13572.576; 0.00895; 0.00026
 347.62;  339.586;  108.180;13379.367; 0.00917; 0.00027
 348.21;  469.685;  175.380;13533.522; 0.01174; 0.00034
 348.81;  563.185;  210.780;13381.845; 0.01358; 0.00040
 349.41;  602.587;  195.980;13369.417; 0.01542; 0.00045
 350.00;  631.786;  165.980;13470.448; 0.01831; 0.00054
 350.60;  723.185;  159.580;13588.306; 0.02218; 0.00065
 351.19;  847.685;  178.480;13759.078; 0.02564; 0.00075
 351.79;  950.286;  174.480;13840.276; 0.02736; 0.00080
 352.38; 1043.987;  133.080;13938.916; 0.03067; 0.00090
 352.98; 1201.783;  172.780;13979.839; 0.03557; 0.00105
 353.57; 1360.180;  164.780;14008.884; 0.03980; 0.00118
 354.17; 1426.780;  119.480;14067.448; 0.04100; 0.00121
 354.76; 1670.778;  206.380;14095.882; 0.04469; 0.00132
 355.36; 1746.574;  148.180;14156.360; 0.04800; 0.00143
 355.95; 1858.669;  119.380;14214.335; 0.05078; 0.00151
 356.55; 1996.865;  124.380;14229.371; 0.05339; 0.00159
 357.14; 2121.361;  162.980;14325.365; 0.05337; 0.00159
 357.74; 2209.357;  163.480;14177.550; 0.05468; 0.00163
 358.33; 2267.951;  163.680;14059.315; 0.05562; 0.00167
 358.93; 2268.445;  151.080;13923.782; 0.05648; 0.00169
 359.52; 2273.441;  127.480;13798.344; 0.05485; 0.00165
 360.12; 2289.836;  154.680;13719.972; 0.05446; 0.00164
 360.71; 2259.435;  149.580;13707.554; 0.05249; 0.00158
 361.31; 2286.033;  193.880;13621.268; 0.05112; 0.00154
 361.90; 2412.831;  397.180;13507.738; 0.04979; 0.00151
 362.50; 2152.828;  163.880;13484.098; 0.05036; 0.00153
 363.09; 2066.129;  123.480;13341.582; 0.04960; 0.00151
 363.69; 2021.033;  136.280;13261.120; 0.04921; 0.00150
 364.28; 2021.938;  140.980;13269.773; 0.04997; 0.00152
 364.88; 2090.140;  232.780;13351.165; 0.05160; 0.00157
 365.47; 2027.245;  175.780;13342.885; 0.05020; 0.00153
 366.06; 1957.349;  143.580;13257.149; 0.04999; 0.00153
 366.66; 1979.150;  157.580;13117.317; 0.05121; 0.00157
 367.25; 1990.851;  180.680;13006.099; 0.05089; 0.00156
 367.85; 1972.854;  137.880;12998.112; 0.05006; 0.00154
 368.44; 2053.050;  228.680;12809.111; 0.05003; 0.00154
 369.04; 1960.747;  173.780;12658.104; 0.04940; 0.00152
 369.63; 1942.545;  174.480;12538.629; 0.04835; 0.00149
 370.23; 1885.443;  144.080;12507.819; 0.04816; 0.00149
 370.82; 1824.539;  154.780;12275.616; 0.04793; 0.00149
 371.41; 1748.141;  143.580;12167.683; 0.04623; 0.00144
 372.01; 1696.140;  159.180;12115.712; 0.04520; 0.00141
 372.60; 1607.342;  140.680;11975.456; 0.04432; 0.00138
 373.20; 1634.345;  226.080;12039.964; 0.04161; 0.00130
 373.79; 1494.448;  184.980;11941.740; 0.03776; 0.00118
 374.39; 1364.447;  152.680;11902.018; 0.03540; 0.00111
 374.98; 1297.447;  148.780;11792.806; 0.03364; 0.00105
 375.57; 1223.046;  166.980;11721.304; 0.03164; 0.00099
 376.17; 1161.744;  161.680;11796.660; 0.03019; 0.00095
 376.76; 1073.046;  154.580;11721.704; 0.02783; 0.00088
 377.36; 1003.946;  139.180;11727.335; 0.02626; 0.00083
 377.95;  924.447;  148.980;11721.412; 0.02322; 0.00073
 378.55;  862.247;  137.580;11711.712; 0.02186; 0.00069
 379.14;  802.249;  130.880;11709.428; 0.02005; 0.00064
 379.73;  727.044;  132.080;11636.354; 0.01844; 0.00059
 380.33;  728.646;  159.580;11703.912; 0.01731; 0.00055
 380.92;  683.745;  162.980;11668.144; 0.01601; 0.00051
 381.51;  648.548;  158.580;11686.070; 0.01485; 0.00047
 382.11;  556.147;  129.180;11643.046; 0.01299; 0.00041
 382.70;  573.145;  167.480;11603.363; 0.01254; 0.00040
 383.30;  527.846;  124.080;11590.348; 0.01236; 0.00040
 383.89;  494.245;  169.880;11709.427; 0.00992; 0.00032
 384.48;  448.845;  135.180;11665.995; 0.00960; 0.00031
 385.08;  459.545;  166.780;11854.352; 0.00892; 0.00029
 385.67;  388.246;  120.980;11824.527; 0.00797; 0.00026
 386.27;  400.446;  139.380;11982.236; 0.00777; 0.00025
 386.86;  381.345;  145.680;12038.498; 0.00706; 0.00023
 387.45;  366.346;  154.080;12123.205; 0.00626; 0.00020
 388.05;  403.347;  190.980;12277.087; 0.00615; 0.00020
 388.64;  399.447;  197.280;12483.044; 0.00583; 0.00019
 389.23;  358.547;  170.680;12506.880; 0.00537; 0.00017
 389.83;  314.245;  138.680;12733.854; 0.00501; 0.00016
 390.42;  338.546;  190.480;13005.489; 0.00414; 0.00014
 391.01;  276.549;  115.980;13122.046; 0.00441; 0.00014
 391.61;  274.845;  134.880;13136.770; 0.00387; 0.00013
 392.20;  282.945;  140.580;13389.848; 0.00389; 0.00013
 392.79;  262.446;  136.780;13482.314; 0.00339; 0.00011
 393.39;  318.845;  193.880;13714.141; 0.00333; 0.00011
 393.98;  233.947;  108.780;13887.473; 0.00329; 0.00011
 394.57;  294.543;  169.980;14119.877; 0.00328; 0.00011
 395.17;  302.947;  197.480;14342.017; 0.00270; 0.00009
 395.76;  272.644;  188.180;14398.170; 0.00218; 0.00007
 396.35;  235.147;  161.980;14723.368; 0.00185; 0.00006
 396.95;  254.946;  171.180;14851.736; 0.00210; 0.00007
 397.54;  268.946;  164.780;15011.260; 0.00257; 0.00009
 398.13;  339.147;  257.380;15237.327; 0.00200; 0.00007
 398.73;  237.047;  167.780;15364.602; 0.00167; 0.00006
 399.32;  224.644;  149.880;15491.473; 0.00180; 0.00006
 399.91;  196.046;  132.980;15600.753; 0.00149; 0.00005
 400.50;  237.146;  165.580;15697.381; 0.00169; 0.00006
 401.10;  241.347;  192.680;15828.054; 0.00113; 0.00004
 401.69;  218.746;  141.080;15854.460; 0.00180; 0.00006
 402.28;  211.847;  146.080;15897.175; 0.00151; 0.00005
 402.88;  215.547;  166.380;15970.475; 0.00112; 0.00004
 403.47;  219.547;  158.080;16008.786; 0.00140; 0.00005
 404.06;  258.446;  195.380;16056.750; 0.00143; 0.00005
 404.66;  231.447;  170.880;16006.671; 0.00137; 0.00005
 405.25;  222.245;  180.780;16161.003; 0.00094; 0.00003
 405.84;  171.148;  133.680;16197.799; 0.00084; 0.00003
 406.43;  181.847;  129.280;16343.805; 0.00117; 0.00004
 407.03;  236.847;  184.280;16413.145; 0.00116; 0.00004
 407.62;  182.744;  137.480;16282.092; 0.00101; 0.00003
 408.21;  298.147;  251.080;16281.894; 0.00105; 0.00004
 408.80;  173.546;  132.080;16313.383; 0.00092; 0.00003
 409.40;  179.848;  133.680;16243.061; 0.00102; 0.00003
 409.99;  229.247;  178.580;16360.174; 0.00112; 0.00004
 410.58;  166.949;  111.080;16266.062; 0.00123; 0.00004
 411.17;  177.048;  123.680;16281.023; 0.00118; 0.00004
 411.77;  191.546;  168.680;16300.337; 0.00051; 0.00002
 412.36;  170.947;  142.580;16211.225; 0.00063; 0.00002
 412.95;  172.549;  129.880;16312.261; 0.00094; 0.00003
 413.54;  187.549;  155.280;16200.710; 0.00071; 0.00002
 414.14;  196.149;  153.080;16218.084; 0.00096; 0.00003
 414.73;  145.548;   99.380;15995.170; 0.00104; 0.00004
 415.32;  169.549;  142.180;16069.668; 0.00062; 0.00002
 415.91;  160.451;  124.580;15987.828; 0.00081; 0.00003
 416.50;  176.050;  131.680;15943.356; 0.00100; 0.00003
 417.10;  151.849;  128.980;15912.947; 0.00052; 0.00002
 417.69;  247.549;  218.380;15903.020; 0.00067; 0.00002
 418.28;  199.749;  175.380;15902.022; 0.00056; 0.00002
 418.87;  206.150;  158.980;15922.014; 0.00109; 0.00004
 419.47;  197.050;  164.680;15950.140; 0.00075; 0.00003
 420.06;  239.452;  220.380;15879.978; 0.00044; 0.00002
 420.65;  224.850;  184.280;15894.348; 0.00096; 0.00003
 421.24;  181.352;  140.480;15789.352; 0.00096; 0.00003
 421.83;  162.352;  113.280;15610.418; 0.00117; 0.00004
 422.43;  167.151;  130.280;15405.994; 0.00089; 0.00003
 423.02;  196.950;  172.980;15476.169; 0.00058; 0.00002
 423.61;  221.054;  192.280;15425.441; 0.00070; 0.00002
 424.20;  173.053;  148.280;15117.051; 0.00061; 0.00002
 424.79;  204.354;  173.980;15050.664; 0.00075; 0.00003
 425.38;  161.253;  133.780;14884.408; 0.00068; 0.00002
 425.98;  156.952;  132.680;14787.487; 0.00061; 0.00002
 426.57;  249.055;  213.880;14780.592; 0.00089; 0.00003
 427.16;  275.255;  247.780;14687.646; 0.00070; 0.00002
 427.75;  159.854;  125.780;14634.427; 0.00088; 0.00003
 428.34;  135.255;  106.980;14516.915; 0.00073; 0.00003
 428.93;  191.357;  162.180;14525.937; 0.00075; 0.00003
 429.53;  199.359;  158.780;14399.900; 0.00106; 0.00004
 430.12;  161.557;  126.080;14222.417; 0.00094; 0.00003
 430.71;  139.356;  109.880;14024.941; 0.00079; 0.00003
 431.30;  221.554;  216.580;14018.987; 0.00013; 0.00000
 431.89;  206.557;  185.680;13882.793; 0.00056; 0.00002
 432.48;  219.359;  196.180;13707.379; 0.00063; 0.00002
 433.08;  161.357;  147.080;13447.029; 0.00039; 0.00001
 433.67;  171.758;  151.580;13403.231; 0.00056; 0.00002
 434.26;  191.759;  161.880;13265.896; 0.00083; 0.00003
 434.85;  210.160;  184.980;13088.457; 0.00070; 0.00003
 435.44;  188.961;  180.680;12961.570; 0.00023; 0.00001
 436.03;  200.662;  174.980;12988.141; 0.00072; 0.00003
 436.62;  343.959;  329.080;12866.499; 0.00042; 0.00002
 437.21;  175.961;  154.680;12843.026; 0.00060; 0.00002
 437.81;  226.462;  187.480;12774.470; 0.00111; 0.00004
 438.40;  216.261;  193.780;12805.753; 0.00064; 0.00002
 438.99;  213.163;  202.680;12760.762; 0.00030; 0.00001
 439.58;  154.962;  125.180;12757.487; 0.00085; 0.00003
 440.17;  160.863;  142.680;12745.864; 0.00052; 0.00002
 440.76;  202.562;  169.980;12749.184; 0.00094; 0.00003
 441.35;  152.264;  137.380;12701.024; 0.00043; 0.00002
 441.94;  176.962;  165.080;12804.873; 0.00034; 0.00001
 442.53;  138.762;  135.880;12713.802; 0.00008; 0.00000
 443.12;  212.564;  184.980;12880.022; 0.00079; 0.00003
 443.72;  125.464;  111.380;12883.889; 0.00040; 0.00001
 444.31;  150.666;  129.480;12914.632; 0.00060; 0.00002
 444.90;  232.464;  211.080;13017.940; 0.00061; 0.00002
 445.49;  144.865;  121.580;12977.005; 0.00066; 0.00002
 446.08;  177.464;  159.780;13065.358; 0.00050; 0.00002
 446.67;  191.263;  172.380;13047.204; 0.00054; 0.00002
 447.26;  148.269;  121.780;13128.922; 0.00074; 0.00003
 447.85;  145.666;  118.980;13136.170; 0.00075; 0.00003
 448.44;  138.268;  117.980;13156.836; 0.00057; 0.00002
 449.03;  140.565;  127.180;13212.075; 0.00037; 0.00001
 449.62;  153.064;  140.980;13212.835; 0.00034; 0.00001
 450.21;  178.868;  171.680;13232.144; 0.00020; 0.00001
 450.80;  189.866;  159.180;13210.071; 0.00084; 0.00003
 451.39;  139.367;  110.580;13280.288; 0.00078; 0.00003
 451.98;  150.669;  132.880;13361.025; 0.00048; 0.00002
 452.57;  143.569;  121.580;13352.967; 0.00059; 0.00002
 453.17;  139.067;  116.980;13390.926; 0.00059; 0.00002
 453.76;  141.670;  127.780;13449.411; 0.00037; 0.00001
 454.35;  153.969;  145.480;13449.195; 0.00022; 0.00001
 454.94;  140.569;  111.880;13547.948; 0.00075; 0.00003
 455.53;  138.269;  122.180;13647.621; 0.00042; 0.00002
 456.12;  151.570;  134.680;13639.739; 0.00044; 0.00002
 456.71;  179.972;  150.980;13729.472; 0.00074; 0.00003
 457.30;  159.572;  136.680;13869.368; 0.00058; 0.00002
 457.89;  141.571;  136.180;13859.720; 0.00014; 0.00001
 458.48;  119.871;  105.680;13992.283; 0.00036; 0.00001
 459.07;  160.273;  143.580;14014.042; 0.00041; 0.00002
 459.66;  132.872;  113.580;14017.355; 0.00048; 0.00002
 460.25;  119.472;   89.880;14043.774; 0.00073; 0.00003
 460.84;  163.872;  156.080;14122.487; 0.00019; 0.00001
 461.43;  123.272;  108.480;14239.908; 0.00036; 0.00001
 462.02;  165.772;  165.080;14250.976; 0.00002; 0.00000
 462.61;  114.073;  101.880;14354.648; 0.00030; 0.00001
 463.20;  157.074;  132.980;14434.730; 0.00058; 0.00002
 463.79;  163.773;  152.880;14540.469; 0.00026; 0.00001
 464.38;  111.973;   99.480;14582.535; 0.00030; 0.00001
 464.97;  146.073;  141.280;14564.374; 0.00011; 0.00000
 465.56;  112.573;   86.080;14552.106; 0.00063; 0.00002
 466.15;  113.777;   83.880;14775.149; 0.00070; 0.00003
 466.74;  180.077;  158.780;14771.829; 0.00050; 0.00002
 467.32;  105.275;   91.780;14624.322; 0.00032; 0.00001
 467.91;  164.975;  146.180;14685.370; 0.00044; 0.00002
 468.50;  118.075;   99.680;14662.474; 0.00043; 0.00002
 469.09;  138.076;  119.280;14603.087; 0.00043; 0.00002
 469.68;  221.275;  183.380;14576.221; 0.00088; 0.00003
 470.27;  176.577;  158.180;14710.860; 0.00042; 0.00002
 470.86;  133.279;  117.580;14779.790; 0.00036; 0.00001
 471.45;  130.177;  107.380;14796.673; 0.00052; 0.00002
 472.04;  118.777;  100.980;14893.567; 0.00040; 0.00002
 472.63;  270.578;  277.880;14949.444;-0.00017;-0.00001
 473.22;  164.080;  128.480;15081.421; 0.00081; 0.00003
 473.81;  125.280;  103.580;15204.309; 0.00049; 0.00002
 474.40;  173.079;  160.380;15323.040; 0.00029; 0.00001
 474.99;  159.180;  132.280;15371.985; 0.00060; 0.00002
 475.58;  194.479;  150.880;15472.797; 0.00098; 0.00004
 476.17;  116.282;   84.780;15381.247; 0.00070; 0.00003
 476.76;  115.881;   98.480;15500.493; 0.00039; 0.00002
 477.34;  157.181;  123.280;15690.220; 0.00076; 0.00003
 477.93;  120.880;   95.980;15655.120; 0.00056; 0.00002
 478.52;  127.481;  108.680;15804.937; 0.00042; 0.00002
 479.11;  107.281;   82.880;15723.306; 0.00054; 0.00002
 479.70;  210.081;  196.380;15824.401; 0.00030; 0.00001
 480.29;   80.781;   50.380;15854.772; 0.00068; 0.00003
 480.88;  117.680;  110.180;15970.172; 0.00017; 0.00001
 481.47;  157.281;  128.980;16240.510; 0.00063; 0.00003
 482.06;  102.481;   78.180;16277.097; 0.00054; 0.00002
 482.64;  119.980;   87.880;16369.672; 0.00072; 0.00003
 483.23;  111.780;   83.380;16600.365; 0.00063; 0.00003
 483.82;  104.880;   84.380;16701.951; 0.00046; 0.00002
 484.41;  111.982;  100.480;16720.385; 0.00026; 0.00001
 485.00;   92.682;   61.280;16684.320; 0.00070; 0.00003
 485.59;  114.781;   89.180;16757.570; 0.00057; 0.00002
 486.18;  120.781;  102.180;16565.195; 0.00042; 0.00002
 486.77;  123.982;  106.880;16641.256; 0.00039; 0.00002
 487.35;  145.383;  125.380;16516.766; 0.00045; 0.00002
 487.94;  138.384;  129.280;16342.365; 0.00021; 0.00001
 488.53;  193.081;  163.580;16328.276; 0.00067; 0.00003
 489.12;  130.081;   93.280;16137.914; 0.00084; 0.00003
 489.71;  109.583;   99.080;16040.510; 0.00024; 0.00001
 490.30;  110.181;  103.680;15823.296; 0.00015; 0.00001
 490.89;  101.083;   81.880;15770.310; 0.00045; 0.00002
 491.47;  214.482;  195.680;15636.203; 0.00044; 0.00002
 492.06;  185.984;  171.480;15767.440; 0.00034; 0.00001
 492.65;   91.281;   71.280;15651.517; 0.00047; 0.00002
 493.24;  113.782;  112.980;15745.321; 0.00002; 0.00000
 493.83;  109.683;   93.380;15737.289; 0.00039; 0.00002
 494.42;  100.681;   67.880;15680.605; 0.00078; 0.00003
 495.00;  135.586;  115.680;15772.610; 0.00047; 0.00002
 495.59;  130.784;  125.780;15555.489; 0.00012; 0.00000
 496.18;  109.383;  102.080;15587.835; 0.00018; 0.00001
 496.77;   85.885;   83.280;15499.329; 0.00006; 0.00000
 497.36;  155.683;  139.680;15408.615; 0.00039; 0.00002
 497.94;  149.583;  130.980;15405.174; 0.00046; 0.00002
 498.53;   97.586;   79.280;15336.545; 0.00045; 0.00002
 499.12;   99.087;   68.780;15247.135; 0.00076; 0.00003
 499.71;  122.583;  106.880;15223.276; 0.00040; 0.00002
 500.30;   92.284;  116.080;15162.171;-0.00060;-0.00003
 500.88;  130.487;  117.780;15165.755; 0.00032; 0.00001
 501.47;  100.386;   80.980;15064.069; 0.00050; 0.00002
 502.06;  126.586;  104.180;15084.289; 0.00058; 0.00002
 502.65;   97.286;   94.480;15053.546; 0.00007; 0.00000
 503.23;  100.785;   83.380;14986.635; 0.00045; 0.00002
 503.82;   97.286;   93.880;15037.966; 0.00009; 0.00000
 504.41;   83.988;   74.280;14906.905; 0.00025; 0.00001
 505.00;  217.686;  193.680;14855.493; 0.00063; 0.00003
 505.58;  135.086;  116.880;14830.521; 0.00048; 0.00002
 506.17;  157.987;  129.380;14742.188; 0.00076; 0.00003
 506.76;  128.985;  108.380;14670.589; 0.00055; 0.00002
 507.35;  147.687;  134.680;14583.180; 0.00035; 0.00001
 507.93;  120.089;   96.780;14526.590; 0.00063; 0.00003
 508.52;   94.988;   71.080;14549.052; 0.00065; 0.00003
 509.11;  137.186;   94.680;14402.097; 0.00116; 0.00005
 509.70;  106.788;   74.680;14285.923; 0.00088; 0.00004
 510.28;  136.188;  106.180;14326.917; 0.00083; 0.00004
 510.87;  113.889;   82.180;14263.308; 0.00088; 0.00004
 511.46;  102.789;   83.280;14128.893; 0.00055; 0.00002
 512.05;  120.887;   79.980;14064.229; 0.00115; 0.00005
 512.63;  123.891;  104.180;14044.876; 0.00056; 0.00002
 513.22;  108.789;   80.080;13960.816; 0.00082; 0.00004
 513.81;  122.892;   90.880;13930.912; 0.00092; 0.00004
 514.40;  119.091;   86.580;13850.705; 0.00094; 0.00004
 514.98;  161.191;  106.780;13811.717; 0.00158; 0.00007
 515.57;  146.689;  119.580;13759.513; 0.00079; 0.00003
 516.16;  302.890;  233.680;13665.995; 0.00204; 0.00009
 516.74;  126.190;   75.980;13650.798; 0.00149; 0.00006
 517.33;  196.789;  130.480;13631.582; 0.00197; 0.00009
 517.92;  172.390;  102.380;13572.029; 0.00209; 0.00009
 518.50;  139.292;   49.880;13526.084; 0.00269; 0.00012
 519.09;  192.890;   97.580;13522.206; 0.00286; 0.00012
 519.68;  158.591;   76.580;13582.164; 0.00248; 0.00011
 520.26;  175.691;   76.880;13514.477; 0.00299; 0.00013
 520.85;  195.390;   77.880;13509.653; 0.00358; 0.00016
 521.44;  222.890;  110.780;13416.109; 0.00344; 0.00015
 522.02;  185.989;   65.680;13449.657; 0.00370; 0.00016
 522.61;  225.592;   76.580;13481.719; 0.00458; 0.00020
 523.20;  285.090;  126.780;13529.651; 0.00487; 0.00021
 523.78;  235.991;   47.580;13421.774; 0.00582; 0.00025
 524.37;  290.891;   95.480;13489.089; 0.00605; 0.00027
 524.96;  277.792;   65.880;13546.479; 0.00658; 0.00029
 525.54;  336.292;   96.280;13559.268; 0.00746; 0.00033
 526.13;  350.091;  119.280;13613.739; 0.00719; 0.00032
 526.72;  315.091;   50.980;13636.987; 0.00824; 0.00036
 527.30;  357.093;   89.280;13736.029; 0.00835; 0.00037
 527.89;  411.293;   97.780;13772.479; 0.00980; 0.00043
 528.48;  416.692;   78.580;13717.585; 0.01059; 0.00047
 529.06;  473.493;  116.180;13839.567; 0.01119; 0.00049
 529.65;  496.494;  102.880;13879.060; 0.01233; 0.00055
 530.23;  530.995;  106.180;13985.299; 0.01332; 0.00059
 530.82;  574.792;  110.780;14006.492; 0.01459; 0.00065
 531.41;  569.593;  111.980;13952.847; 0.01446; 0.00064
 531.99;  679.393;  167.780;14189.484; 0.01610; 0.00072
 532.58;  635.694;   79.680;14202.188; 0.01756; 0.00078
 533.17; 1105.094;  500.480;14394.606; 0.01898; 0.00085
 533.75;  742.993;  104.380;14400.594; 0.02005; 0.00089
 534.34;  751.993;   70.480;14487.405; 0.02143; 0.00096
 534.92;  881.593;  132.280;14675.321; 0.02347; 0.00105
 535.51;  867.494;   90.580;14802.540; 0.02425; 0.00109
 536.10;  895.693;   73.280;14892.283; 0.02576; 0.00115
 536.68;  914.892;   55.980;14930.339; 0.02680; 0.00120
 537.27;  985.595;   77.780;15110.231; 0.02831; 0.00127
 537.85; 1073.793;   90.780;15302.512; 0.03039; 0.00137
 538.44; 1094.195;   74.980;15447.575; 0.03137; 0.00141
 539.02; 1116.493;   66.080;15526.634; 0.03237; 0.00146
 539.61; 1207.794;   75.180;15661.866; 0.03464; 0.00156
 540.20; 1288.095;  101.080;15878.364; 0.03616; 0.00163
 540.78; 1342.694;  109.580;16158.702; 0.03726; 0.00168
 541.37; 1349.496;   59.280;16286.580; 0.03877; 0.00175
 541.95; 1466.496;  122.580;16484.824; 0.04021; 0.00182
 542.54; 1480.496;   87.580;16728.355; 0.04126; 0.00187
 543.12; 1596.994;  120.880;16867.094; 0.04340; 0.00197
 543.71; 1631.195;  110.480;17189.740; 0.04432; 0.00201
 544.29; 1675.394;   88.980;17314.779; 0.04589; 0.00209
 544.88; 1739.294;  102.280;17689.258; 0.04684; 0.00213
 545.47; 1708.194;   44.980;17727.537; 0.04747; 0.00216
 546.05; 1810.996;   99.780;17966.822; 0.04845; 0.00221
 546.64; 2057.694;  319.080;18134.611; 0.04905; 0.00224
 547.22; 1897.396;   81.880;18293.980; 0.05080; 0.00232
 547.81; 1968.197;  127.880;18506.514; 0.05102; 0.00234
 548.39; 1974.996;   89.280;18651.521; 0.05224; 0.00239
 548.98; 2020.195;  108.080;18741.889; 0.05300; 0.00243
 549.56; 2031.396;   97.180;18939.928; 0.05316; 0.00244
 550.15; 2049.395;   56.880;19057.387; 0.05475; 0.00252
 550.73; 2052.398;   89.380;19266.816; 0.05380; 0.00248
 551.32; 2076.597;   70.680;19436.779; 0.05478; 0.00252
 551.90; 2086.395;   70.380;19450.693; 0.05510; 0.00254
 552.49; 2146.097;   96.280;19831.463; 0.05569; 0.00257
 553.07; 2181.396;  116.780;19986.041; 0.05612; 0.00259
 553.66; 2150.496;  103.380;20108.471; 0.05539; 0.00256
 554.24; 2275.798;  229.780;20174.721; 0.05568; 0.00258
 554.83; 2163.497;   98.780;20293.715; 0.05587; 0.00259
 555.41; 2164.097;   94.680;20431.230; 0.05594; 0.00260
 556.00; 2183.997;  114.280;20531.824; 0.05574; 0.00259
 556.58; 2148.398;   94.380;20630.889; 0.05540; 0.00258
 557.17; 2143.198;  103.880;20893.254; 0.05482; 0.00255
 557.75; 2083.199;   71.280;21027.377; 0.05409; 0.00252
 558.33; 2080.298;   64.980;21327.117; 0.05371; 0.00251
 558.92; 2095.099;   89.080;21511.662; 0.05335; 0.00249
 559.50; 2060.098;   58.880;21679.539; 0.05305; 0.00248
 560.09; 2052.898;   74.980;21966.859; 0.05224; 0.00245
 560.67; 2093.698;  119.580;22094.262; 0.05211; 0.00244
 561.26; 2319.798;  394.280;22325.426; 0.05061; 0.00237
 561.84; 2078.298;  121.280;22537.285; 0.05141; 0.00241
 562.43; 1974.900;   88.180;22665.506; 0.04932; 0.00232
 563.01; 2005.898;   85.680;22804.908; 0.05035; 0.00237
 563.60; 1923.098;   79.980;22987.145; 0.04821; 0.00227
 564.18; 1853.898;   29.980;22954.326; 0.04799; 0.00226
 564.76; 1905.098;  107.380;23225.584; 0.04725; 0.00223
 565.35; 1804.399;   19.180;23472.633; 0.04671; 0.00221
 565.93; 1847.499;  104.780;23797.533; 0.04557; 0.00216
 566.52; 1796.198;   75.880;24374.377; 0.04475; 0.00212
 567.10; 1770.200;   54.580;24673.195; 0.04480; 0.00212
 567.68; 1753.998;   46.280;25084.010; 0.04445; 0.00211
 568.27; 1676.099;   29.780;25516.410; 0.04293; 0.00204
 568.85; 1782.899;  144.180;26141.744; 0.04250; 0.00202
 569.44; 1635.200;   53.080;26641.191; 0.04112; 0.00196
 570.02; 1598.599;   26.880;27187.600; 0.04069; 0.00194
 570.60; 1618.700;   70.280;27742.281; 0.03997; 0.00191
 571.19; 1595.999;   82.680;28157.010; 0.03893; 0.00186
 571.77; 1635.798;  128.680;28428.947; 0.03885; 0.00186
 572.36; 1486.598;   36.880;28979.928; 0.03723; 0.00178
 572.94; 1518.699;   77.480;29391.047; 0.03695; 0.00177
 573.52; 1436.099;   37.980;29856.078; 0.03579; 0.00172
 574.11; 1450.800;   35.280;30210.297; 0.03610; 0.00173
 574.69; 1410.498;   42.380;30610.469; 0.03490; 0.00168
 575.27; 1392.499;   48.480;31068.201; 0.03411; 0.00164
 575.86; 1362.399;   55.080;31324.652; 0.03323; 0.00160
 576.44; 1349.300;   48.180;31821.682; 0.03296; 0.00159
 577.03; 1335.697;   44.480;32242.576; 0.03268; 0.00158
 577.61; 1293.298;   50.180;32332.604; 0.03153; 0.00152
 578.19; 1262.799;   32.080;32663.738; 0.03115; 0.00151
 578.78; 1251.299;   38.680;33150.430; 0.03067; 0.00148
 579.36; 1221.400;   17.980;33498.246; 0.03034; 0.00147
 579.94; 1260.697;   75.480;33838.488; 0.02981; 0.00145
 580.53; 1195.000;   55.980;33925.402; 0.02860; 0.00139
 581.11; 1212.399;   80.580;33902.137; 0.02830; 0.00137
 581.69; 1217.999;  105.280;33934.109; 0.02777; 0.00135
 582.28; 1154.899;   44.680;34024.719; 0.02773; 0.00135
 582.86; 1117.999;   33.180;34404.578; 0.02705; 0.00132
 583.44; 1138.699;   90.180;34290.453; 0.02622; 0.00128
 584.02; 1076.498;   37.680;34502.574; 0.02584; 0.00126
 584.61; 1127.898;   76.080;34367.449; 0.02617; 0.00128
 585.19; 1123.600;  110.680;34147.840; 0.02527; 0.00124
 585.77; 1100.599;   80.480;34324.949; 0.02547; 0.00125
 586.36; 1039.197;   52.980;34220.977; 0.02465; 0.00121
 586.94; 1028.700;   48.880;34264.648; 0.02458; 0.00121
 587.52;  987.898;   26.980;34169.328; 0.02407; 0.00118
 588.11; 1000.099;   56.380;34027.176; 0.02380; 0.00117
 588.69; 1032.698;  119.280;34133.223; 0.02306; 0.00113
 589.27;  932.700;   27.080;34017.098; 0.02295; 0.00113
 589.85;  945.499;   37.080;34200.453; 0.02299; 0.00113
 590.44;  930.400;   37.780;34417.695; 0.02259; 0.00111
 591.02;  944.799;   54.580;34525.262; 0.02267; 0.00112
 591.60;  887.898;   59.880;34488.723; 0.02110; 0.00104
 592.18;  920.199;   73.280;34247.359; 0.02178; 0.00108
 592.77;  913.597;   77.080;34253.250; 0.02158; 0.00107
 593.35;  826.200;   18.780;34408.547; 0.02088; 0.00104
 593.93;  812.100;   15.080;34700.426; 0.02058; 0.00102
 594.51;  825.799;   43.280;34792.813; 0.02037; 0.00101
 595.10;  755.399;    5.780;35006.313; 0.01954; 0.00097
 595.68;  823.300;   51.480;35184.211; 0.02021; 0.00101
 596.26;  746.199;   20.980;35202.832; 0.01903; 0.00095
 596.84;  738.498;   10.680;35400.758; 0.01918; 0.00096
 597.43;  763.598;   44.980;35554.852; 0.01901; 0.00095
 598.01;  728.598;   24.780;35705.520; 0.01869; 0.00093
 598.59;  715.000;   28.080;35872.508; 0.01825; 0.00091
 599.17;  708.398;   28.780;35825.816; 0.01816; 0.00091
 599.76;  676.599;    9.680;35690.133; 0.01790; 0.00090
 600.34;  630.997;   14.180;35831.438; 0.01661; 0.00083
 600.92;  684.198;   57.680;35801.262; 0.01694; 0.00085
 601.50;  633.097;    9.480;35980.527; 0.01689; 0.00085
 602.08;  696.697;   87.580;35747.195; 0.01661; 0.00084
 602.67;  683.697;   78.380;35853.664; 0.01656; 0.00083
 603.25;  597.199;    6.380;35959.473; 0.01618; 0.00082
 603.83;  611.599;   28.180;35792.375; 0.01607; 0.00081
 604.41;  551.499;   -4.120;35914.496; 0.01536; 0.00078
 604.99;  627.498;   71.980;36049.531; 0.01541; 0.00078
 605.58;  583.297;   10.580;35814.113; 0.01608; 0.00081
 606.16;  564.998;   37.780;35771.234; 0.01487; 0.00075
 606.74;  552.197;   42.880;35656.973; 0.01445; 0.00073
 607.32;  516.500;   13.480;35315.395; 0.01432; 0.00073
 607.90;  602.298;  111.480;35155.938; 0.01404; 0.00071
 608.48;  519.899;   21.080;34978.152; 0.01435; 0.00073
 609.07;  537.500;   56.380;34852.227; 0.01392; 0.00071
 609.65;  638.597;  150.180;34810.895; 0.01415; 0.00072
 610.23;  483.998;   18.980;34730.625; 0.01356; 0.00069
 610.81;  440.698;  -20.520;34496.090; 0.01351; 0.00069
 611.39;  455.798;  -12.320;34449.219; 0.01377; 0.00070
 611.97;  459.297;   42.080;34513.590; 0.01234; 0.00063
 612.55;  457.100;   33.380;34686.289; 0.01254; 0.00064
 613.14;  420.298;   -6.220;34700.883; 0.01268; 0.00065
 613.72;  378.097;  -38.020;34388.938; 0.01249; 0.00064
 614.30;  407.198;    2.480;34659.613; 0.01212; 0.00062
 614.88;  400.198;    7.680;34379.121; 0.01184; 0.00061
 615.46;  382.198;   14.980;34221.359; 0.01115; 0.00057
 616.04;  402.196;   52.580;33908.996; 0.01072; 0.00055
 616.62;  400.797;   44.880;33753.336; 0.01091; 0.00056
 617.20;  320.497;  -27.620;33597.859; 0.01073; 0.00055
 617.79;  401.797;   66.080;33727.773; 0.01033; 0.00053
 618.37;  329.799;  -13.120;33152.965; 0.01066; 0.00055
 618.95;  347.798;   37.780;33161.605; 0.00970; 0.00050
 619.53;  288.798;  -20.620;32939.707; 0.00973; 0.00050
 620.11;  313.898;   19.180;33004.430; 0.00931; 0.00048
 620.69;  295.597;    2.980;32959.859; 0.00929; 0.00048
 621.27;  325.199;   47.680;32839.289; 0.00888; 0.00046
 621.85;  301.098;   13.180;32868.613; 0.00921; 0.00048
 622.43;  251.797;  -10.020;32800.363; 0.00846; 0.00044
 623.01;  231.198;  -33.620;32647.637; 0.00861; 0.00045
 623.59;  243.696;  -38.220;32613.248; 0.00920; 0.00048
 624.17;  258.099;  -12.020;32739.422; 0.00885; 0.00046
 624.76;  233.597;  -18.820;32559.518; 0.00831; 0.00043
 625.34;  243.098;   10.380;32568.980; 0.00772; 0.00040
 625.92;  258.399;   32.380;32468.295; 0.00752; 0.00039
 626.50;  203.298;  -20.620;32290.064; 0.00750; 0.00039
 627.08;  244.999;   10.980;32135.045; 0.00787; 0.00041
 627.66;  231.799;    2.380;32275.604; 0.00773; 0.00041
 628.24;  230.996;   10.080;31949.385; 0.00751; 0.00039
 628.82;  213.097;  -11.220;31947.217; 0.00763; 0.00040
 629.40;  182.898;   -6.920;31771.922; 0.00649; 0.00034
 629.98;  155.997;  -41.520;31671.943; 0.00678; 0.00036
 630.56;  168.296;  -24.620;31838.951; 0.00663; 0.00035
 631.14;  150.498;  -32.120;31703.836; 0.00631; 0.00033
 631.72;  138.395;  -31.520;31831.287; 0.00588; 0.00031
 632.30;  123.697;  -32.020;31650.430; 0.00543; 0.00029
 632.88;  123.396;  -51.420;31645.305; 0.00612; 0.00032
 633.46;  136.498;  -37.120;31591.738; 0.00611; 0.00032
 634.04;  163.496;   15.380;31630.781; 0.00522; 0.00028
 634.62;  206.897;   43.480;31356.793; 0.00582; 0.00031
 635.20;  170.297;   29.080;31504.246; 0.00503; 0.00027
 635.78;  107.097;  -37.020;31576.955; 0.00517; 0.00027
 636.36;  109.297;  -40.120;31361.947; 0.00540; 0.00029
 636.94;  184.195;   38.880;31584.695; 0.00526; 0.00028
 637.52;  125.096;  -19.520;31522.854; 0.00525; 0.00028
 638.10;   82.296;  -47.320;31509.953; 0.00472; 0.00025
 638.68;  133.795;   -0.720;31569.314; 0.00491; 0.00026
 639.26;  145.798;    5.480;31614.053; 0.00515; 0.00028
 639.84;  197.198;   81.480;31718.201; 0.00426; 0.00023
 640.42;   89.097;  -40.720;31593.980; 0.00479; 0.00026
 641.00;   55.797;  -59.420;31727.652; 0.00425; 0.00023
 641.58;   92.797;  -33.920;31806.523; 0.00469; 0.00025
 642.16;  100.197;  -24.620;31878.197; 0.00462; 0.00025
 642.74;  111.297;  -10.920;32005.869; 0.00454; 0.00024
 643.32;  119.097;  -12.520;32003.541; 0.00490; 0.00026
 643.90;  100.898;   -7.720;31874.514; 0.00406; 0.00022
 644.47;   71.498;  -25.720;31967.086; 0.00366; 0.00020
 645.05;   88.298;  -34.320;32259.957; 0.00461; 0.00025
 645.63;   75.998;   -8.420;32513.930; 0.00318; 0.00017
 646.21;   97.198;   -3.920;32526.102; 0.00382; 0.00021
 646.79;  100.498;   -7.920;32665.674; 0.00410; 0.00022
 647.37;   50.598;  -35.620;32710.047; 0.00328; 0.00018
 647.95;  100.098;   20.280;32776.320; 0.00304; 0.00016
 648.53;  110.898;   10.280;32969.391; 0.00384; 0.00021
 649.11;   56.098;  -44.320;33030.465; 0.00385; 0.00021
 649.69;   42.798;  -56.120;33200.035; 0.00380; 0.00021
 650.27;   48.298;  -17.820;33310.707; 0.00254; 0.00014
 650.85;   39.698;  -30.320;33928.180; 0.00269; 0.00015
 651.42;   40.898;  -35.520;34418.152; 0.00296; 0.00016
 652.00;   17.398;  -65.920;34969.625; 0.00322; 0.00018
 652.58;   43.399;  -30.920;35191.797; 0.00288; 0.00016
 653.16;   46.199;  -28.320;36135.668; 0.00289; 0.00016
 653.74;   60.499;    7.580;36648.441; 0.00206; 0.00011
 654.32;  107.899;   19.480;37165.813; 0.00344; 0.00019
 654.90;   61.399;  -18.220;37183.387; 0.00310; 0.00017
 655.48;   21.399;  -38.820;36928.457; 0.00235; 0.00013
 656.05;    7.199;  -61.920;36971.133; 0.00270; 0.00015
 656.63;   30.399;  -40.620;37052.504; 0.00278; 0.00015
 657.21;   63.699;   -9.720;36949.676; 0.00288; 0.00016
 657.79;   97.299;   30.880;36851.949; 0.00260; 0.00014
 658.37;  227.199;  160.380;36239.219; 0.00263; 0.00014
 658.95;   30.999;  -20.720;35664.891; 0.00204; 0.00011
 659.53;   37.099;  -27.320;35354.664; 0.00254; 0.00014
 660.10;   14.099;  -43.120;34605.535; 0.00227; 0.00013
 660.68;   29.200;  -37.120;34863.910; 0.00263; 0.00015
 661.26;   69.300;    2.680;34861.480; 0.00264; 0.00015
 661.84;   64.600;   -7.020;34877.855; 0.00285; 0.00016
 662.42;   38.600;  -22.720;34987.824; 0.00244; 0.00014
 663.00;  100.700;   44.780;35223.297; 0.00223; 0.00012
 663.57;   36.700;  -12.520;35418.969; 0.00196; 0.00011
 664.15;    2.600;  -52.720;35596.441; 0.00220; 0.00012
 664.73;   46.600;   -0.620;35720.516; 0.00189; 0.00010
 665.31;   29.000;  -39.720;35988.887; 0.00274; 0.00015
 665.89;   19.800;  -32.520;36325.660; 0.00208; 0.00012
 666.46;   -1.800;  -56.620;36449.031; 0.00218; 0.00012
 667.04;   -0.400;  -60.720;36462.703; 0.00240; 0.00013
 667.62;   12.700;  -49.420;36704.078; 0.00247; 0.00014
 668.20;   43.800;   -2.920;36966.848; 0.00186; 0.00010
 668.78;   23.200;  -30.920;37359.223; 0.00214; 0.00012
 669.35;  262.901;  202.480;37649.895; 0.00239; 0.00013
 669.93;   16.601;  -30.020;37991.066; 0.00184; 0.00010
 670.51;   -7.199;  -68.320;38145.738; 0.00240; 0.00013
 671.09;   12.901;  -31.120;38209.109; 0.00173; 0.00010
 671.66;   51.201;   14.280;38580.684; 0.00144; 0.00008
 672.24;  -19.099;  -57.520;38670.656; 0.00151; 0.00008
 672.82;   20.801;  -13.220;39357.125; 0.00132; 0.00007
 673.40;   -2.099;  -49.920;39317.500; 0.00187; 0.00011
 673.97;   13.901;  -28.720;39754.371; 0.00166; 0.00009
 674.55;  -21.399;  -70.220;40012.742; 0.00191; 0.00011
 675.13;   25.701;  -19.120;40245.215; 0.00175; 0.00010
 675.71;  -25.099;  -63.420;40351.789; 0.00150; 0.00008
 676.28;   31.801;  -17.420;40497.563; 0.00193; 0.00011
 676.86;   18.701;  -20.520;40881.934; 0.00153; 0.00009
 677.44;   36.001;   -8.320;41243.406; 0.00172; 0.00010
 678.01;  -15.998;  -56.920;41566.777; 0.00158; 0.00009
 678.59;    7.502;  -40.920;41856.949; 0.00186; 0.00011
 679.17;   58.702;    7.880;42126.723; 0.00194; 0.00011
 679.75;  -15.498;  -46.120;42527.496; 0.00117; 0.00007
 680.32;   -3.198;  -53.620;42799.965; 0.00191; 0.00011
 680.90;  -11.498;  -45.020;42983.039; 0.00127; 0.00007
 681.48;   16.702;  -19.120;43704.012; 0.00134; 0.00008
 682.05;   56.902;   13.580;43718.582; 0.00163; 0.00009
 682.63;  -35.098;  -70.420;44042.055; 0.00133; 0.00008
 683.21;   -7.498;  -42.120;44531.629; 0.00129; 0.00007
 683.78;   -2.298;  -27.520;44788.398; 0.00094; 0.00005
 684.36;  -32.498;  -42.620;44854.273; 0.00038; 0.00002
 684.94;  -25.598;  -58.720;45147.445; 0.00124; 0.00007
 685.52;    0.202;  -42.420;45579.016; 0.00159; 0.00009
 686.09;  -29.597;  -59.720;45676.688; 0.00113; 0.00006
 686.67;  -22.697;  -53.320;45566.063; 0.00115; 0.00007
 687.25;   11.703;  -29.520;45785.234; 0.00155; 0.00009
 687.82;  -21.897;  -55.520;45951.406; 0.00127; 0.00007
 688.40;    6.503;  -25.620;46290.379; 0.00121; 0.00007
 688.97;  -24.297;  -45.720;46223.852; 0.00081; 0.00005
 689.55;  -26.497;  -43.320;46394.621; 0.00063; 0.00004
 690.13;    3.803;  -14.820;46349.594; 0.00070; 0.00004
 690.70;   46.103;   25.180;46622.266; 0.00079; 0.00005
 691.28;   18.303;   -6.120;46828.539; 0.00092; 0.00005
 691.86;   15.803;   -9.320;47108.512; 0.00095; 0.00005
 692.43;    4.203;  -45.520;47368.785; 0.00188; 0.00011
 693.01;  -13.597;  -39.220;47615.758; 0.00097; 0.00006
 693.59;   47.703;   28.180;47501.730; 0.00074; 0.00004
 694.16;  -33.897;  -57.720;47670.801; 0.00090; 0.00005
 694.74;    3.604;  -26.920;48102.574; 0.00116; 0.00007
 695.31;  -24.696;  -57.720;48244.445; 0.00125; 0.00007
 695.89;  -45.896;  -62.320;48315.719; 0.00063; 0.00004
 696.47;  -26.696;  -49.020;48414.789; 0.00085; 0.00005
 697.04;   84.304;   64.680;48520.863; 0.00075; 0.00004
 697.62;   14.404;   -4.120;48766.734; 0.00070; 0.00004
 698.19;    0.804;  -18.220;48808.207; 0.00072; 0.00004
 698.77;   38.204;    5.380;49016.680; 0.00125; 0.00007
 699.34;    0.804;   -8.920;49065.551; 0.00037; 0.00002
 699.92;    8.804;  -17.420;49022.223; 0.00100; 0.00006
 700.50;  -38.996;  -42.520;49321.195; 0.00013; 0.00001
 701.07;  -13.696;  -34.420;49435.668; 0.00079; 0.00005
 701.65;    4.104;   -3.920;49736.641; 0.00030; 0.00002
 702.22;    6.904;   -9.320;49895.914; 0.00062; 0.00004
 702.80;   14.404;   13.880;49964.785; 0.00002; 0.00000
 703.37;   24.705;    2.380;50193.457; 0.00085; 0.00005
 703.95;   11.705;   -1.520;50479.629; 0.00051; 0.00003
 704.52;  -17.695;  -22.620;50941.102; 0.00019; 0.00001
 705.10;  -15.795;  -40.620;51257.973; 0.00095; 0.00006
 705.68;  -29.995;  -58.620;51457.348; 0.00109; 0.00006
 706.25;  -22.995;  -44.820;51790.617; 0.00083; 0.00005
 706.83;    5.205;  -27.720;51709.492; 0.00126; 0.00007
 707.40;   36.505;   17.780;51802.363; 0.00072; 0.00004
 707.98;  -13.095;   -5.020;52174.938;-0.00031;-0.00002
 708.55;  -15.095;  -34.120;52212.406; 0.00073; 0.00004
 709.13;  -10.995;  -36.620;52351.980; 0.00098; 0.00006
 709.70;   29.905;    5.880;52634.453; 0.00092; 0.00005
 710.28;    9.805;  -13.520;52829.727; 0.00089; 0.00005
 710.85;  -14.995;  -23.520;52866.598; 0.00033; 0.00002
 711.43;  -22.394;  -36.020;53221.270; 0.00052; 0.00003
 712.00;   42.106;   47.280;53035.141;-0.00020;-0.00001
 712.58;   -7.894;  -14.720;53267.813; 0.00026; 0.00002
 713.15;    6.506;   -8.020;53512.387; 0.00056; 0.00003
 713.73;  169.606;  152.380;53688.059; 0.00066; 0.00004
 714.30;   38.806;   -2.220;53973.031; 0.00158; 0.00009
 714.88;  -27.594;  -47.120;53874.602; 0.00075; 0.00004
 715.45;   21.006;    7.980;54110.676; 0.00050; 0.00003
 716.03;  -10.294;  -43.420;54504.449; 0.00127; 0.00008
 716.60;   -9.294;  -28.520;54248.020; 0.00074; 0.00004
 717.17;  -22.594;  -40.820;54334.492; 0.00071; 0.00004
 717.75;    3.606;  -20.720;54719.965; 0.00094; 0.00006
 718.32;   23.006;   22.780;54422.438; 0.00001; 0.00000
 718.90;  -19.594;  -34.320;54219.508; 0.00058; 0.00003
 719.47;    8.106;    5.380;54395.980; 0.00011; 0.00001
 720.05;   14.207;    5.880;54543.352; 0.00033; 0.00002
 720.62;  -20.793;  -13.320;54725.727;-0.00029;-0.00002
 721.20;   26.007;   27.480;54603.398;-0.00006; 0.00000
 721.77;   19.807;   14.480;54810.770; 0.00021; 0.00001
 722.34;   11.507;  -11.020;54964.742; 0.00089; 0.00005
 722.92;  -27.993;  -48.320;54886.816; 0.00081; 0.00005
 723.49;  -71.693;  -67.620;55052.387;-0.00016;-0.00001
 724.07;    7.607;   -0.220;55315.660; 0.00031; 0.00002
 724.64;  -12.193;  -38.320;55283.133; 0.00104; 0.00006
 725.21;   -9.793;   -6.520;55661.605;-0.00013;-0.00001
 725.79;   25.607;   10.680;55881.777; 0.00059; 0.00004
 726.36;  -15.593;   -7.020;56024.648;-0.00034;-0.00002
 726.94;  -11.193;  -17.220;56315.820; 0.00024; 0.00001
 727.51;  -11.393;  -21.220;56807.895; 0.00039; 0.00002
 728.08;  -20.493;  -27.720;56846.766; 0.00029; 0.00002
 728.66;    4.408;  -22.320;57255.438; 0.00107; 0.00007
 729.23;  -34.992;  -38.320;57826.512; 0.00013; 0.00001
 729.80;  -48.692;  -50.920;57723.582; 0.00009; 0.00001
 730.38;    0.008;    3.380;58136.555;-0.00014;-0.00001
 730.95;  -38.792;  -42.020;58380.727; 0.00013; 0.00001
 731.53;    5.508;   11.180;58386.398;-0.00023;-0.00001
 732.10;    9.008;    1.580;58444.473; 0.00030; 0.00002
 732.67;  -21.492;  -36.420;58673.445; 0.00060; 0.00004
 733.25;   48.508;   30.880;58645.816; 0.00071; 0.00004
 733.82;  -24.792;  -35.220;58935.488; 0.00042; 0.00003
 734.39;   10.708;  -12.720;59133.359; 0.00095; 0.00006
 734.97;  -27.792;  -42.820;59207.234; 0.00061; 0.00004
 735.54;   53.708;   43.880;59275.906; 0.00040; 0.00002
 736.11;   -9.592;   -6.020;59227.777;-0.00015;-0.00001
 736.69;   62.009;   62.480;59661.551;-0.00002; 0.00000
 737.26;   -4.691;   -4.720;59761.621; 0.00000; 0.00000
 737.83;  -12.591;  -33.620;59570.594; 0.00086; 0.00005
 738.41;  -29.091;  -41.220;59493.766; 0.00049; 0.00003
 738.98;   -8.091;  -30.020;59380.039; 0.00090; 0.00006
 739.55;   37.309;   29.180;59269.609; 0.00033; 0.00002
 740.12;  -19.291;  -22.220;59404.781; 0.00012; 0.00001
 740.70;  -27.191;  -41.220;59095.055; 0.00058; 0.00004
 741.27;  -43.891;  -55.420;59266.027; 0.00047; 0.00003
 741.84;  -54.691;  -67.820;58997.301; 0.00054; 0.00003
 742.42;  -23.891;  -41.320;58935.172; 0.00072; 0.00004
 742.99;   52.109;   35.180;59108.945; 0.00070; 0.00004
 743.56;  -20.691;  -25.820;58782.516; 0.00021; 0.00001
 744.13;  -56.491;  -67.220;58925.988; 0.00045; 0.00003
 744.71;  170.109;  160.680;59260.961; 0.00039; 0.00002
 745.28;  -14.990;  -14.520;59793.035;-0.00002; 0.00000
 745.85;  -37.090;  -43.820;60592.605; 0.00028; 0.00002
 746.42;   -8.090;  -19.920;60780.477; 0.00050; 0.00003
 747.00;    4.510;   -9.820;60843.250; 0.00061; 0.00004
 747.57;  136.010;  136.780;61990.422;-0.00003; 0.00000
 748.14;  -12.190;  -17.220;62691.895; 0.00021; 0.00001
 748.71;    4.610;  -10.220;62852.969; 0.00063; 0.00004
 749.29;    8.110;    3.780;63047.340; 0.00018; 0.00001
 749.86;    4.910;   -1.120;62964.410; 0.00026; 0.00002
 750.43;  -23.890;  -29.120;62938.785; 0.00023; 0.00001
 751.00;  -52.390;  -34.220;63066.457;-0.00078;-0.00005
 751.58;  -26.690;  -40.620;62976.328; 0.00060; 0.00004
 752.15;  193.610;  184.280;62703.602; 0.00041; 0.00003
 752.72;  -43.290;  -50.720;62198.273; 0.00032; 0.00002
 753.29;  116.810;  109.680;61943.344; 0.00031; 0.00002
 753.86;  -38.089;  -46.120;61476.219; 0.00035; 0.00002
 754.44;   -4.489;    1.280;60961.590;-0.00025;-0.00002
 755.01;  -30.589;  -38.820;61186.664; 0.00036; 0.00002
 755.58;  -26.889;  -37.320;61188.133; 0.00046; 0.00003
 756.15;   -0.889;   -4.720;61287.309; 0.00017; 0.00001
 756.72;   22.711;   22.180;61241.980; 0.00002; 0.00000
 757.29;   -9.289;  -12.220;61520.852; 0.00013; 0.00001
 757.87;  -33.389;  -48.220;61177.625; 0.00067; 0.00004
 758.44;  -34.089;  -30.320;61340.598;-0.00017;-0.00001
 759.01;   -1.489;  -10.320;61652.770; 0.00040; 0.00003
 759.58;  -41.589;  -45.620;61150.539; 0.00018; 0.00001
 760.15;   23.811;   27.680;61244.414;-0.00018;-0.00001
 760.72;  -42.789;  -58.220;61275.887; 0.00071; 0.00005
 761.30;  -39.589;  -53.920;61491.059; 0.00066; 0.00004
 761.87;  -13.788;  -22.920;61700.730; 0.00042; 0.00003
 762.44;  -29.588;  -42.220;61389.602; 0.00059; 0.00004
 763.01;    7.412;   -0.620;61658.973; 0.00038; 0.00002
 763.58;   16.812;    7.480;61295.145; 0.00044; 0.00003
 764.15;    3.712;    4.980;61126.418;-0.00006; 0.00000
 764.72;    1.612;  -17.120;61225.391; 0.00089; 0.00006
 765.30;  -33.188;  -39.020;60961.664; 0.00028; 0.00002
 765.87;  -21.788;  -17.820;60665.336;-0.00019;-0.00001
 766.44;   67.012;   46.080;60815.809; 0.00100; 0.00006
 767.01;   50.312;   41.880;60390.180; 0.00041; 0.00003
 767.58;  -56.888;  -65.220;60249.254; 0.00040; 0.00003
 768.15;   18.112;   11.280;60025.125; 0.00033; 0.00002
 768.72;  -27.488;  -41.920;60071.797; 0.00071; 0.00005
 769.29;  -36.988;  -34.120;59639.867;-0.00014;-0.00001
 769.86;   11.712;    6.180;59723.941; 0.00027; 0.00002
 770.43;  -54.987;  -45.620;59481.012;-0.00047;-0.00003
 771.00;   -8.687;  -28.220;59468.387; 0.00098; 0.00006
 771.58;  -10.087;  -14.820;59318.758; 0.00024; 0.00002
 772.15;  -33.087;  -40.720;58759.230; 0.00039; 0.00002
 772.72;   -9.187;  -12.320;58501.004; 0.00016; 0.00001
 773.29;  -16.587;  -14.620;58823.375;-0.00010;-0.00001
 773.86;  -50.087;  -46.420;58642.848;-0.00019;-0.00001
 774.43;  -12.687;  -22.920;58347.719; 0.00053; 0.00003
 775.00;    3.513;    0.080;58084.594; 0.00018; 0.00001
 775.57;   -0.287;   -1.020;58187.266; 0.00004; 0.00000
 776.14;    1.913;    1.680;57666.438; 0.00001; 0.00000
 776.71;    4.413;    9.080;57754.707;-0.00025;-0.00002
 777.28;  -14.487;  -17.620;57916.582; 0.00017; 0.00001
 777.85;  -29.887;  -22.620;57633.352;-0.00039;-0.00003
 778.42;    1.413;   -0.720;57701.227; 0.00011; 0.00001
 778.99;   15.914;   20.080;57689.199;-0.00022;-0.00001
 779.56;  -24.786;  -32.420;57683.570; 0.00041; 0.00003
 780.13;  -17.186;  -21.320;57522.441; 0.00022; 0.00001
 780.70;   33.214;   14.480;57127.715; 0.00103; 0.00007
 781.27;   10.514;   -7.920;57373.688; 0.00101; 0.00007
 781.84;  -45.786;  -44.620;57035.359;-0.00006; 0.00000
 782.41;    7.514;    5.980;57011.230; 0.00009; 0.00001
 782.98;  -25.386;  -15.820;56933.703;-0.00053;-0.00003
 783.55;   -2.586;   -0.820;56749.277;-0.00010;-0.00001
 784.12;    0.114;   -5.920;56663.449; 0.00034; 0.00002
 784.69;    9.014;   20.380;56571.520;-0.00065;-0.00004
 785.26;  -23.386;  -21.420;56155.594;-0.00011;-0.00001
 785.83;  -53.586;  -44.320;56493.266;-0.00053;-0.00003
 786.40;    0.114;    0.380;56145.137;-0.00002; 0.00000
 786.97;   22.615;   23.280;56138.109;-0.00004; 0.00000
 787.54;   26.815;   23.780;55947.883; 0.00018; 0.00001
 788.11;   39.915;   23.480;55781.355; 0.00097; 0.00006
 788.68;  -26.685;  -41.320;55704.926; 0.00086; 0.00006
 789.25;  -11.385;   -1.720;55524.000;-0.00057;-0.00004
 789.82;   -3.285;   21.280;55552.473;-0.00147;-0.00010
 790.39;    8.315;   10.980;55451.941;-0.00016;-0.00001
 790.96;  -16.085;  -27.120;55430.816; 0.00067; 0.00004
 791.52;  -29.485;  -23.420;55217.586;-0.00037;-0.00002
 792.09;   47.615;   49.280;55290.262;-0.00010;-0.00001
 792.66;   -1.285;    1.480;54793.531;-0.00017;-0.00001
 793.23;   70.815;   81.680;54894.703;-0.00067;-0.00004
 793.80;    1.015;    2.980;54770.176;-0.00012;-0.00001
 794.37;  -16.085;    5.980;54456.648;-0.00138;-0.00009
 794.94;    1.215;    1.380;54176.121;-0.00001; 0.00000
 795.51;   -6.784;  -11.420;54046.492; 0.00029; 0.00002
 796.08;  -11.884;  -23.520;53871.066; 0.00074; 0.00005
 796.65;  -27.684;  -28.620;53578.039; 0.00006; 0.00000
 797.21;   44.116;   32.080;53301.109; 0.00077; 0.00005
 797.78;   11.516;   12.880;52997.883;-0.00009;-0.00001
 798.35;   53.016;   47.680;52509.055; 0.00035; 0.00002
 798.92;  726.816;  723.280;52532.129; 0.00023; 0.00002
 799.49;  -21.684;  -19.820;52089.301;-0.00012;-0.00001
 800.06;   44.516;   49.780;51915.273;-0.00035;-0.00002
 800.63;   35.316;   28.980;51659.145; 0.00042; 0.00003
 801.20;    0.816;  -10.520;51781.215; 0.00076; 0.00005
 801.76;    4.316;    2.780;51808.391; 0.00010; 0.00001
 802.33;    0.916;   10.280;51489.063;-0.00063;-0.00004
 802.90;   30.716;   38.780;51322.234;-0.00055;-0.00004
 803.47;    0.816;   -3.120;51648.906; 0.00027; 0.00002
 804.04;  -21.483;  -18.020;51628.277;-0.00024;-0.00002
 804.61;   47.017;   41.980;51369.352; 0.00035; 0.00002
 805.17;  -18.883;  -10.120;51365.223;-0.00060;-0.00004
 805.74;  -23.983;  -19.020;51444.695;-0.00034;-0.00002
 806.31;    3.917;   12.580;51037.367;-0.00060;-0.00004
 806.88;  -61.683;  -58.020;51096.238;-0.00025;-0.00002
 807.45;  -56.883;  -51.420;50997.012;-0.00038;-0.00003
 808.01;   -5.483;    3.080;50947.582;-0.00060;-0.00004
 808.58;   59.317;   69.380;50841.555;-0.00071;-0.00005
 809.15;   16.617;    5.280;50956.328; 0.00080; 0.00005
 809.72;   23.817;   26.980;50689.500;-0.00022;-0.00002
 810.29;    7.517;   15.680;50169.973;-0.00059;-0.00004
 810.85;   -5.183;   -7.420;50108.844; 0.00016; 0.00001
 811.42;  -14.983;  -20.520;49628.117; 0.00040; 0.00003
 811.99;  -13.082;  -11.620;49373.191;-0.00011;-0.00001
 812.56;  -18.582;  -20.420;48973.660; 0.00014; 0.00001
 813.12;   18.418;   19.580;48451.535;-0.00009;-0.00001
 813.69;   17.218;    8.780;48256.105; 0.00064; 0.00004
 814.26;    2.718;   -4.920;47696.578; 0.00059; 0.00004
 814.83;  -15.082;   -5.620;47276.250;-0.00073;-0.00005
 815.39;  -41.382;  -35.820;47147.422;-0.00044;-0.00003
 815.96;   13.618;    2.180;46894.797; 0.00090; 0.00006
 816.53;   84.118;   93.980;46686.770;-0.00078;-0.00005
 817.10;  -16.582;  -25.520;46572.539; 0.00072; 0.00005
 817.66;  -51.382;  -51.720;46288.414; 0.00003; 0.00000
 818.23;  -47.782;  -54.120;46067.184; 0.00051; 0.00004
 818.80;  -41.782;  -41.920;45888.656; 0.00001; 0.00000
 819.37;   -0.482;   15.980;45872.930;-0.00135;-0.00009
 819.93;  -29.182;  -28.120;45789.703;-0.00009;-0.00001
 820.50;  -57.681;  -51.820;45226.676;-0.00049;-0.00003
 821.07;  -36.481;  -53.320;45200.645; 0.00141; 0.00010
 821.63;  130.219;  126.580;44835.719; 0.00031; 0.00002
 822.20;  107.219;  103.180;44818.590; 0.00034; 0.00002
 822.77;   10.119;   15.380;44641.164;-0.00045;-0.00003
 823.34;  -16.881;  -19.020;44447.734; 0.00018; 0.00001
 823.90;  -35.281;  -24.820;44150.906;-0.00091;-0.00006
 824.47;   12.719;    1.180;44035.379; 0.00101; 0.00007
 825.04;  -39.081;  -26.120;43910.254;-0.00113;-0.00008
 825.60;  -11.681;   -2.020;43882.324;-0.00085;-0.00006
 826.17;  -42.781;  -45.320;43471.496; 0.00023; 0.00002
 826.74;  -32.581;  -37.620;43311.770; 0.00045; 0.00003
 827.30;  -26.381;  -33.320;42923.641; 0.00062; 0.00004
 827.87;  -11.881;  -13.720;42849.914; 0.00017; 0.00001
 828.43;  -10.381;  -13.620;42678.484; 0.00029; 0.00002
 829.00;  -26.080;  -39.920;42585.656; 0.00126; 0.00009
 829.57;  -10.080;    9.780;42440.332;-0.00181;-0.00013
 830.13;  -59.080;  -64.420;42015.703; 0.00049; 0.00003
 830.70;  -46.380;  -36.220;41864.375;-0.00094;-0.00007
 831.27;  -12.080;  -10.920;41474.148;-0.00011;-0.00001
 831.83;  -47.180;  -53.020;41387.020; 0.00055; 0.00004
 832.40;  -17.280;   -3.120;41185.090;-0.00133;-0.00009
 832.97;   26.620;   36.180;41002.664;-0.00090;-0.00006
 833.53;  -38.680;  -31.820;41077.836;-0.00065;-0.00005
 834.10;  -30.480;  -23.020;40836.008;-0.00071;-0.00005
 834.66;  -40.180;  -32.720;40648.781;-0.00072;-0.00005
 835.23;   -9.480;  -24.220;40573.055; 0.00142; 0.00010
 835.80;  -44.180;  -45.720;40440.824; 0.00015; 0.00001
 836.36;  -33.180;  -32.520;40334.199;-0.00006; 0.00000
 836.93;   -4.079;    5.080;40271.168;-0.00089;-0.00006
 837.49;   47.921;   46.180;40151.543; 0.00017; 0.00001
 838.06;  -13.479;   -1.320;40058.313;-0.00119;-0.00008
 838.62;  -14.979;  -15.420;39899.086; 0.00004; 0.00000
 839.19;  -14.779;  -10.420;39905.758;-0.00043;-0.00003
 839.76;  -31.379;  -16.220;39728.430;-0.00151;-0.00011
 840.32;  -42.779;  -47.720;39485.805; 0.00050; 0.00003
 840.89;  236.921;  230.680;39678.176; 0.00063; 0.00004
 841.45;   -4.579;  -17.720;39488.348; 0.00133; 0.00009
 842.02;  -48.279;  -53.020;39167.621; 0.00048; 0.00003
 842.58;  -39.979;  -42.920;39187.094; 0.00030; 0.00002
 843.15;   27.021;   31.980;39180.465;-0.00051;-0.00004
 843.71;  -30.679;  -36.020;39060.836; 0.00055; 0.00004
 844.28;  -66.379;  -69.720;38864.809; 0.00035; 0.00002
 844.84;   -1.979;   -5.420;38862.082; 0.00036; 0.00003
 845.41;  -27.778;  -23.220;38615.355;-0.00048;-0.00003
 845.97;  -45.978;  -48.920;38402.527; 0.00031; 0.00002
 846.54;  -27.678;  -28.820;38075.898; 0.00012; 0.00001
 847.10;  -23.278;  -12.020;38229.371;-0.00119;-0.00008
 847.67;  -42.878;  -49.720;37966.344; 0.00073; 0.00005
 848.23;  -19.178;  -22.620;38067.414; 0.00037; 0.00003
 848.80;    9.922;    5.280;38042.086; 0.00050; 0.00004
 849.36;  -31.478;  -29.820;37738.262;-0.00018;-0.00001
 849.93;  -21.378;  -23.620;37655.934; 0.00024; 0.00002
 850.49;  -12.378;  -14.320;37582.004; 0.00021; 0.00002
 851.06;  -48.778;  -49.220;37505.277; 0.00005; 0.00000
 851.62;  -19.178;  -20.320;37262.051; 0.00013; 0.00001
 852.19;  -22.778;  -26.820;37233.020; 0.00045; 0.00003
 852.75;  -38.478;  -46.220;37155.895; 0.00086; 0.00006
 853.32;  -25.378;  -14.820;37105.266;-0.00117;-0.00008
 853.88;  -16.277;  -18.620;36902.438; 0.00026; 0.00002
 854.45;   -2.777;   -2.820;37137.012; 0.00000; 0.00000
 855.01;   22.223;   22.480;37010.383;-0.00003; 0.00000
 855.57;  -43.277;  -23.820;36921.453;-0.00219;-0.00016
 856.14;  -61.477;  -52.320;36626.629;-0.00104;-0.00007
 856.70;  -43.677;  -36.520;36714.199;-0.00081;-0.00006
 857.27;  -18.677;  -29.720;36510.172; 0.00126; 0.00009
 857.83;  -74.977;  -69.920;36357.344;-0.00058;-0.00004
 858.40;   29.923;   25.080;36322.215; 0.00056; 0.00004
 858.96;  -24.377;  -30.120;36140.387; 0.00067; 0.00005
 859.52;   -1.177;    0.280;36171.262;-0.00017;-0.00001
 860.09;  -10.977;  -22.720;35921.734; 0.00137; 0.00010
 860.65;  -16.577;  -19.520;35764.504; 0.00034; 0.00002
 861.22;  -35.077;  -33.620;35727.977;-0.00017;-0.00001
 861.78;    5.324;    5.980;35638.051;-0.00008;-0.00001
 862.34;  -33.076;  -27.320;35649.922;-0.00068;-0.00005
 862.91;   -9.776;  -19.120;35682.594; 0.00111; 0.00008
 863.47;  132.224;  134.280;35224.566;-0.00025;-0.00002
 864.03;  -48.476;  -55.220;35401.738; 0.00081; 0.00006
 864.60;    2.324;   16.580;35293.512;-0.00171;-0.00012
 865.16;  -42.976;  -57.320;35132.184; 0.00174; 0.00013
 865.73;  -19.276;  -17.820;35111.855;-0.00018;-0.00001
 866.29;  132.424;  114.680;35043.527; 0.00216; 0.00016
 866.85;  -45.976;  -65.720;34721.301; 0.00242; 0.00018
 867.42;  -17.076;   -5.020;34616.371;-0.00148;-0.00011
 867.98;  -39.476;  -49.720;34527.145; 0.00127; 0.00009
 868.54;   20.224;   19.180;34441.617; 0.00013; 0.00001
 869.11;  -40.776;  -54.520;34366.289; 0.00171; 0.00012
 869.67;  -34.676;  -30.020;34234.863;-0.00058;-0.00004
 870.23;  -39.175;  -23.520;34228.133;-0.00197;-0.00014
 870.80;  -14.875;  -35.920;33878.707; 0.00268; 0.00020
 871.36;  -50.175;  -45.920;33584.379;-0.00055;-0.00004
 871.92;   37.125;   35.680;33514.352; 0.00019; 0.00001
 872.48;  -47.575;  -53.120;33352.023; 0.00072; 0.00005
 873.05;  -21.075;  -12.720;33107.297;-0.00110;-0.00008
 873.61;  -27.975;  -32.620;33006.969; 0.00061; 0.00004
 874.17;  -25.975;  -17.020;32897.238;-0.00119;-0.00009
 874.74;  -28.775;  -30.120;32747.340; 0.00018; 0.00001
 875.30;  -17.775;  -25.420;32872.738; 0.00102; 0.00007
 875.86;  -24.175;  -46.220;32962.238; 0.00294; 0.00022
 876.42;  -45.675;  -46.620;32924.941; 0.00013; 0.00001
 876.99;  -41.775;  -22.220;32876.039;-0.00263;-0.00019
 877.55;  -28.875;  -20.720;32981.738;-0.00109;-0.00008
 878.11;  -14.675;   -5.320;32831.238;-0.00126;-0.00009
 878.68;   -2.575;  -19.020;32682.740; 0.00222; 0.00016
 879.24;   -3.275;  -20.720;32631.039; 0.00237; 0.00017
 879.80;   11.725;   -4.320;32451.240; 0.00219; 0.00016
 880.36;  -10.975;  -20.520;32387.539; 0.00131; 0.00010
 880.92;   -2.275;    1.580;32337.240;-0.00053;-0.00004
 881.49;  -17.175;  -15.620;32357.840;-0.00021;-0.00002
 882.05;  -15.075;  -17.620;32220.439; 0.00035; 0.00003
 882.61;   25.325;   29.780;32083.240;-0.00062;-0.00005
 883.17;  -13.375;  -16.720;32091.740; 0.00047; 0.00003
 883.74;  -12.575;   -5.620;32096.439;-0.00097;-0.00007
 884.30;  -35.975;  -36.120;31958.539; 0.00002; 0.00000
 884.86;   25.225;    6.480;32176.439; 0.00262; 0.00019
 885.42;  -33.175;  -18.920;32150.439;-0.00200;-0.00015
 885.98;  -48.775;  -58.620;32145.740; 0.00138; 0.00010
 886.55;  -15.475;  -28.420;32321.740; 0.00181; 0.00013
 887.11;  -17.375;    6.480;32423.840;-0.00333;-0.00025
 887.67;  -19.675;  -21.520;32421.840; 0.00026; 0.00002
 888.23;  -45.675;  -37.320;32570.340;-0.00116;-0.00009
 888.79;    9.425;   -3.420;32596.740; 0.00179; 0.00013
 889.35;  -41.675;  -37.520;32642.240;-0.00058;-0.00004
 889.92;   13.425;   13.180;32765.641; 0.00003; 0.00000
 890.48;  167.525;  172.580;32825.039;-0.00070;-0.00005
 891.04;  -40.675;  -22.920;32990.238;-0.00245;-0.00018
 891.60;  -42.475;  -43.920;33047.441; 0.00020; 0.00001
 892.16;   -0.275;   -2.720;33188.941; 0.00034; 0.00002
 892.72;  -30.675;  -41.020;33357.141; 0.00141; 0.00011
 893.29;  -47.075;  -43.420;33494.738;-0.00050;-0.00004
 893.85;  -32.575;  -35.020;33665.738; 0.00033; 0.00002
 894.41;  -44.375;  -58.420;33926.641; 0.00190; 0.00014
 894.97;    9.125;   -2.520;33988.340; 0.00157; 0.00012
 895.53;  -38.675;  -37.420;34219.238;-0.00017;-0.00001
 896.09;  -20.775;  -28.720;34269.340; 0.00106; 0.00008
 896.65;  -25.975;  -20.620;34260.641;-0.00072;-0.00005
 897.21;   -2.675;   -0.120;34229.039;-0.00034;-0.00003
 897.77;  -18.275;  -23.020;34355.941; 0.00064; 0.00005
 898.34;  -30.075;  -23.620;34076.141;-0.00087;-0.00007
 898.90;    0.425;    2.980;33978.840;-0.00035;-0.00003
 899.46;   -6.275;   -5.720;34144.141;-0.00008;-0.00001
 900.02;   30.425;   33.180;33674.641;-0.00038;-0.00003
 900.58;   -8.875;   -7.420;33671.941;-0.00020;-0.00002
 901.14;   54.325;   36.380;33538.441; 0.00249; 0.00019
 901.70;    8.125;    2.480;33275.141; 0.00079; 0.00006
 902.26;  -40.975;  -51.020;33006.840; 0.00141; 0.00011
 902.82;   40.225;   31.680;33014.641; 0.00121; 0.00009
 903.38;  -25.475;  -30.320;32705.539; 0.00069; 0.00005
 903.94;    1.225;   -3.820;32674.340; 0.00073; 0.00005
 904.50;  -22.675;  -24.020;32451.039; 0.00019; 0.00001
 905.06;   -5.475;  -10.220;32229.039; 0.00069; 0.00005
 905.62;   -3.475;   -0.420;31916.439;-0.00045;-0.00003
 906.18;  -12.375;  -16.420;31805.539; 0.00060; 0.00005
 906.74;  -42.775;  -47.920;31546.039; 0.00077; 0.00006
 907.30;   40.325;   26.580;31284.939; 0.00206; 0.00016
 907.86;   10.625;    9.880;31088.240; 0.00011; 0.00001
 908.42;   30.725;   28.180;30928.240; 0.00039; 0.00003
 908.98;   29.425;   14.380;30791.240; 0.00231; 0.00018
 909.54;    7.125;   -6.020;30862.939; 0.00202; 0.00015
 910.10;   35.825;   39.180;30640.740;-0.00052;-0.00004
 910.66;   -1.975;    6.880;30446.240;-0.00138;-0.00010
 911.22;    3.625;    6.980;30321.141;-0.00053;-0.00004
 911.78;  -50.875;  -51.620;29941.939; 0.00012; 0.00001
 912.34;   13.225;   17.080;29914.439;-0.00061;-0.00005
 912.90;   17.225;   39.480;29777.039;-0.00356;-0.00027
 913.46;  -46.075;  -41.420;29485.039;-0.00075;-0.00006
 914.02;  -31.375;  -33.820;29482.439; 0.00040; 0.00003
 914.58;  -21.775;  -30.720;29279.641; 0.00145; 0.00011
 915.14;  -27.975;  -31.220;29122.939; 0.00053; 0.00004
 915.70;   -2.275;   -7.320;29026.539; 0.00083; 0.00006
 916.26;    9.325;   10.280;28810.641;-0.00016;-0.00001
 916.82;  -37.575;  -26.020;28635.939;-0.00192;-0.00015
 917.38;   36.725;   17.780;28403.039; 0.00317; 0.00024
 917.94;  123.425;  128.880;28214.240;-0.00092;-0.00007
 918.50;  -27.375;  -28.920;28052.641; 0.00026; 0.00002
 919.06;    8.825;   15.580;27890.340;-0.00115;-0.00009
 919.62;  -31.075;  -28.120;27654.439;-0.00051;-0.00004
 920.18;   -0.475;   12.380;27634.840;-0.00221;-0.00017
 920.73;  -14.775;  -26.820;27550.340; 0.00209; 0.00016
 921.29;  -19.775;  -23.720;27017.641; 0.00069; 0.00005
 921.85;   18.825;    8.980;27000.840; 0.00174; 0.00013
 922.41;  -28.175;  -32.520;26863.840; 0.00077; 0.00006
 922.97;  -18.275;   -6.020;26599.539;-0.00219;-0.00017
 923.53;   36.825;   34.880;26105.939; 0.00035; 0.00003
 924.09;  -24.775;  -30.920;26005.141; 0.00111; 0.00009
 924.65;  -25.275;  -26.120;25817.740; 0.00015; 0.00001
 925.21;  -28.475;  -21.220;25588.039;-0.00134;-0.00010
 925.76;   -9.275;  -30.520;25424.439; 0.00394; 0.00030
 926.32;    1.925;   18.780;25229.539;-0.00314;-0.00024
 926.88;  -31.075;  -24.320;25060.340;-0.00127;-0.00010
 927.44;  -13.175;   -6.520;24711.039;-0.00126;-0.00010
 928.00;  169.025;  150.380;24361.641; 0.00357; 0.00028
 928.56;    5.025;   -9.120;24109.539; 0.00273; 0.00021
 929.12;   -6.875;   -7.520;23807.740; 0.00013; 0.00001
 929.67;   22.325;   32.180;23666.840;-0.00193;-0.00015
 930.23;  -34.375;  -36.920;23355.141; 0.00050; 0.00004
 930.79;  -10.475;   -0.420;22957.439;-0.00201;-0.00016
 931.35;  -12.375;  -16.920;22612.039; 0.00092; 0.00007
 931.91;  -17.175;  -36.720;22275.939; 0.00399; 0.00031
 932.46;   22.425;   33.580;21815.141;-0.00230;-0.00018
 933.02;  -28.475;  -20.320;21264.539;-0.00171;-0.00013
 933.58;  -29.375;  -30.920;20844.740; 0.00033; 0.00003
 934.14;  -61.775;  -56.320;20402.141;-0.00119;-0.00009
 934.70;  -30.475;  -37.620;19642.840; 0.00160; 0.00012
 935.25;   -8.375;   -3.220;19307.439;-0.00118;-0.00009
 935.81;   88.325;   83.580;18676.840; 0.00112; 0.00009
 936.37;  -17.475;  -10.520;17979.240;-0.00169;-0.00013
 936.93;   19.325;   31.980;17501.539;-0.00319;-0.00025
 937.49;   -9.975;  -14.820;16906.439; 0.00127; 0.00010
 938.04;  -28.575;  -17.520;16194.840;-0.00303;-0.00024
 938.60;  -41.475;  -36.020;15755.940;-0.00155;-0.00012
 939.16;  -39.875;  -36.620;15186.640;-0.00096;-0.00008
 939.72;  -56.775;  -55.320;14717.140;-0.00044;-0.00003
 940.27;   32.825;   36.480;14265.840;-0.00115;-0.00009
 940.83;  -21.375;  -24.320;14046.340; 0.00095; 0.00007
 941.39;   -7.175;  -10.120;13687.040; 0.00097; 0.00008
 941.94;  -44.375;  -51.520;13350.740; 0.00240; 0.00019
 942.50;  -14.075;  -14.720;13158.740; 0.00022; 0.00002
 943.06;   11.725;    5.580;13027.240; 0.00211; 0.00017
 943.62;   29.425;   34.580;12943.740;-0.00178;-0.00014
 944.17;   22.325;   16.480;12754.540; 0.00203; 0.00016
 944.73;   58.825;   52.680;12761.440; 0.00213; 0.00017
 945.29;   26.225;   16.480;12770.440; 0.00337; 0.00027
 945.84;  -35.475;  -46.520;12694.340; 0.00381; 0.00030
 946.40;  -36.275;  -43.420;12711.140; 0.00244; 0.00019
 946.96;   13.925;   30.380;12656.240;-0.00560;-0.00044
 947.52;  -12.475;  -26.220;12695.840; 0.00465; 0.00037
 948.07;    0.225;  -31.220;12718.240; 0.01053; 0.00083
 948.63;   62.325;   60.780;12818.540; 0.00051; 0.00004
 949.19;   -2.575;  -10.920;12749.440; 0.00274; 0.00022
 949.74;  -74.175;  -61.720;12760.940;-0.00405;-0.00032
 950.30;    9.225;   -2.320;12769.340; 0.00372; 0.00030
 950.85;   22.525;   20.480;12864.940; 0.00065; 0.00005
 951.41;  -39.775;  -44.920;12893.340; 0.00163; 0.00013
 951.97;   38.325;   41.080;12921.640;-0.00086;-0.00007
 952.52;   -1.175;   -2.420;12865.640; 0.00039; 0.00003
 953.08;  -19.575;  -16.020;12883.640;-0.00110;-0.00009
 953.64;    8.925;    1.880;12846.440; 0.00215; 0.00017
 954.19;   31.325;   27.680;12893.040; 0.00110; 0.00009
 954.75;   49.225;   33.480;12872.140; 0.00474; 0.00038
 955.31;   49.425;   31.580;12867.940; 0.00533; 0.00043
 955.86;  -23.675;  -17.020;12774.540;-0.00198;-0.00016
 956.42;  -23.475;  -22.320;12672.940;-0.00034;-0.00003
 956.97;  -30.975;  -39.020;12694.140; 0.00237; 0.00019
 957.53;   -8.475;  -18.620;12611.240; 0.00299; 0.00024
 958.09;    9.725;  -11.520;12552.340; 0.00623; 0.00050
 958.64;    7.425;    7.180;12570.040; 0.00007; 0.00001
 959.20;   -0.575;    0.980;12548.940;-0.00045;-0.00004
 959.75;  -18.075;  -12.020;12427.440;-0.00176;-0.00014
 960.31;   -9.175;    1.880;12418.840;-0.00320;-0.00026
 960.86;   62.325;   56.280;12464.640; 0.00175; 0.00014
 961.42;  -11.175;  -11.020;12414.340;-0.00004; 0.00000
 961.98;  -34.675;  -34.820;12345.240; 0.00004; 0.00000
 962.53;   -9.775;  -32.420;12397.740; 0.00657; 0.00053
 963.09;   56.425;   63.880;12366.040;-0.00216;-0.00017
 963.64;   22.325;   27.680;12375.340;-0.00155;-0.00012
 964.20;  -52.775;  -42.920;12267.840;-0.00285;-0.00023
 964.75;  -20.775;  -15.620;12291.440;-0.00150;-0.00012
 965.31;  -51.475;  -49.620;12248.040;-0.00054;-0.00004
 965.86;  -23.275;  -17.120;12229.140;-0.00179;-0.00014
 966.42;   41.025;   32.180;12234.340; 0.00259; 0.00021
 966.97;   40.925;   35.380;12259.840; 0.00162; 0.00013
 967.53;   -4.775;   -8.620;12095.440; 0.00113; 0.00009
 968.08;  -22.675;  -38.420;12157.440; 0.00463; 0.00038
 968.64;   20.625;   28.680;12042.340;-0.00239;-0.00019
 969.19;   26.125;   18.280;12075.540; 0.00233; 0.00019
 969.75;   38.925;   36.680;12006.840; 0.00067; 0.00005
 970.30;   11.725;   -4.920;12064.140; 0.00495; 0.00040
 970.86;    9.325;    7.280;11971.840; 0.00061; 0.00005
 971.41;    5.625;   -6.520;11845.240; 0.00366; 0.00030
 971.97;   -0.075;   10.780;11835.640;-0.00327;-0.00027
 972.52;  -53.475;  -31.020;11665.740;-0.00681;-0.00055
 973.08;   38.425;   39.580;11714.240;-0.00035;-0.00003
 973.63;   70.825;   85.880;11663.040;-0.00460;-0.00037
 974.19;   25.625;    1.780;11593.140; 0.00733; 0.00060
 974.74;    0.825;    3.980;11666.640;-0.00097;-0.00008
 975.29;  299.725;  304.580;11620.240;-0.00151;-0.00012
 975.85;   58.925;   69.580;11558.040;-0.00332;-0.00027
 976.40;   46.725;   60.980;11484.040;-0.00449;-0.00037
 976.96;   30.325;   45.980;11406.940;-0.00495;-0.00040
 977.51;   -4.675;  -18.420;11398.840; 0.00436; 0.00036
 978.07;  -12.175;  -10.120;11290.240;-0.00066;-0.00005
 978.62;   29.525;   28.880;11281.240; 0.00021; 0.00002
 979.17;  399.925;  411.480;11228.340;-0.00373;-0.00031
 979.73;  -19.175;  -19.020;11150.440;-0.00005; 0.00000
 980.28;   26.025;   33.280;11178.640;-0.00237;-0.00019
 980.84;   23.425;   28.580;11049.840;-0.00170;-0.00014
 981.39;  -23.775;   -7.020;11067.040;-0.00555;-0.00045
 981.94;   12.525;    7.980;10985.940; 0.00151; 0.00012
 982.50;   40.225;   20.280;10875.540; 0.00669; 0.00055
 983.05;   26.925;   14.880;10793.640; 0.00407; 0.00033
 983.60;   98.625;   88.880;10866.340; 0.00330; 0.00027
 984.16;   47.125;   27.580;10723.040; 0.00671; 0.00055
 984.71;   10.925;   16.380;10737.640;-0.00188;-0.00015
 985.27;   -3.075;   -7.420;10610.940; 0.00152; 0.00012
 985.82;   32.025;   38.180;10600.940;-0.00216;-0.00018
 986.37;   51.625;   40.680;10579.940; 0.00387; 0.00032
 986.93;    6.325;   12.280;10493.140;-0.00212;-0.00017
 987.48;  -15.175;  -26.820;10429.940; 0.00417; 0.00034
 988.03;    8.625;   15.280;10433.640;-0.00240;-0.00020
 988.59;  -11.575;  -13.520;10379.140; 0.00070; 0.00006
 989.14;   30.725;   26.280;10316.040; 0.00163; 0.00014
 989.69;   -9.675;  -10.920;10319.540; 0.00046; 0.00004
 990.24;   12.425;   19.180;10192.540;-0.00252;-0.00021
 990.80;  -16.475;  -33.220;10144.240; 0.00631; 0.00052
 991.35;  -27.475;  -20.220;10015.240;-0.00275;-0.00023
 991.90;   28.125;   23.780;10114.540; 0.00166; 0.00014
 992.46;   -1.975;  -13.320;10020.740; 0.00437; 0.00036
 993.01;  -24.175;  -27.820; 9927.640; 0.00141; 0.00012
 993.56;  195.925;  206.480; 9917.940;-0.00414;-0.00034
 994.11;   13.625;   19.180; 9840.440;-0.00220;-0.00018
 994.67;  -15.075;    3.580; 9785.640;-0.00745;-0.00062
 995.22;    1.225;   -0.420; 9703.340; 0.00066; 0.00006
 995.77;  -18.375;  -14.420; 9635.340;-0.00161;-0.00013
 996.33;    8.225;    8.780; 9637.840;-0.00023;-0.00002
 996.88;   -9.275;   -9.020; 9517.540;-0.00011;-0.00001
 997.43;  -18.975;  -16.420; 9472.340;-0.00107;-0.00009
 997.98;   53.825;   35.280; 9370.640; 0.00783; 0.00065
 998.53;   32.425;   39.780; 9336.240;-0.00314;-0.00026
 999.09;   -1.675;    6.380; 9233.940;-0.00347;-0.00029
 999.64;  -22.075;  -33.920; 9121.140; 0.00515; 0.00043
1000.19;  -17.675;   -8.920; 9086.640;-0.00385;-0.00032
1000.74;  -41.375;  -37.320; 9052.540;-0.00181;-0.00015
1001.30;  -11.375;  -20.220; 8993.240; 0.00398; 0.00033
1001.85;  -11.975;  -18.320; 8888.440; 0.00289; 0.00024
1002.40;  -29.275;  -32.620; 8808.140; 0.00154; 0.00013
1002.95;   33.125;   21.180; 8765.740; 0.00557; 0.00047
1003.50;   61.325;   54.780; 8714.040; 0.00311; 0.00026
1004.06;   10.025;   23.680; 8593.740;-0.00661;-0.00055
1004.61;  170.225;  174.580; 8532.040;-0.00214;-0.00018
1005.16;  219.625;  225.680; 8522.340;-0.00302;-0.00025
1005.71;   36.725;   33.980; 8537.740; 0.00138; 0.00012
1006.26;    5.325;  -16.220; 8503.640; 0.01100; 0.00092
1006.81;  -45.775;  -41.920; 8549.940;-0.00198;-0.00017
1007.37;   -1.575;    9.580; 8518.340;-0.00580;-0.00049
1007.92;  -19.875;  -22.920; 8547.040; 0.00159; 0.00013
1008.47;    8.425;    7.880; 8650.340; 0.00028; 0.00002
1009.02;   15.225;    8.680; 8730.740; 0.00341; 0.00029
1009.57;   41.925;   22.680; 8770.540; 0.00991; 0.00084
1010.12;  -44.475;  -61.620; 8819.940; 0.00872; 0.00074
1010.67;   35.625;   14.280; 8938.440; 0.01063; 0.00090
1011.22;   37.825;   24.080; 9023.540; 0.00670; 0.00057
1011.78;  -25.375;  -28.720; 9062.440; 0.00160; 0.00014
1012.33;  -33.575;  -27.420; 9068.940;-0.00289;-0.00024
1012.88;   66.625;   58.180; 9182.740; 0.00392; 0.00033
1013.43;   12.625;   21.180; 9165.640;-0.00397;-0.00034
1013.98;   40.025;   25.280; 9256.140; 0.00685; 0.00058
1014.53;  -24.975;   -9.420; 9202.140;-0.00731;-0.00062
1015.08;  -15.975;  -33.320; 9159.840; 0.00826; 0.00070
1015.63;  -18.975;  -11.020; 9075.540;-0.00386;-0.00033
1016.18;  -22.775;  -25.220; 9064.740; 0.00120; 0.00010
1016.73;   53.025;   46.880; 8920.440; 0.00310; 0.00026
1017.28;  115.425;  112.180; 8837.240; 0.00167; 0.00014
1017.84;   10.625;    6.580; 8738.740; 0.00211; 0.00018
1018.39;    4.225;    5.480; 8609.540;-0.00067;-0.00006
1018.94;  -17.675;  -27.920; 8503.540; 0.00556; 0.00047
1019.49;   31.625;   44.680; 8362.940;-0.00726;-0.00062
1020.04;   83.925;   61.380; 8286.340; 0.01276; 0.00109
1020.59;    0.325;   -3.920; 8098.540; 0.00245; 0.00021
1021.14;   -5.475;   -5.220; 8089.340;-0.00015;-0.00001
1021.69;  -17.875;  -30.720; 7874.640; 0.00767; 0.00066
1022.24;   -3.775;   -5.620; 7839.140; 0.00112; 0.00010
1022.79;   48.725;   48.480; 7670.040; 0.00015; 0.00001
1023.34;    5.425;   -1.720; 7596.740; 0.00448; 0.00038
1023.89;   13.425;    4.780; 7513.240; 0.00553; 0.00047
1024.44;    6.325;   10.180; 7382.240;-0.00250;-0.00021
1024.99;   38.725;   28.780; 7310.940; 0.00656; 0.00056
1025.54;   96.925;   73.780; 7213.140; 0.01548; 0.00133
1026.09;   -4.075;  -13.220; 7156.540; 0.00621; 0.00053
1026.64;   -5.475;  -21.120; 7033.140; 0.01083; 0.00093
1027.19;   23.725;    4.180; 6951.540; 0.01379; 0.00118
1027.74;   -0.675;    2.780; 6898.540;-0.00246;-0.00021
1028.29;    3.125;   -5.120; 6785.340; 0.00601; 0.00052
1028.84;   91.325;  107.880; 6689.140;-0.01224;-0.00105
1029.39;   42.725;   33.680; 6693.440; 0.00675; 0.00058
1029.94;   -5.475;  -15.920; 6563.140; 0.00796; 0.00068
1030.48;  -24.475;  -21.920; 6489.840;-0.00197;-0.00017
1031.03;  -25.975;  -25.420; 6408.040;-0.00044;-0.00004
1031.58;   19.125;    7.380; 6390.940; 0.00937; 0.00081
1032.13;  -30.775;  -27.220; 6251.740;-0.00289;-0.00025
1032.68;    6.725;    1.680; 6173.540; 0.00416; 0.00036
1033.23;  -16.775;  -13.820; 6056.340;-0.00246;-0.00021
1033.78;    1.125;   -7.420; 5982.840; 0.00725; 0.00063
1034.33;   23.025;   12.380; 5956.340; 0.00917; 0.00079
1034.88;   70.725;   59.580; 5884.440; 0.00973; 0.00084
1035.43;  -23.575;  -20.320; 5797.040;-0.00289;-0.00025
1035.98;   -8.675;    7.880; 5726.840;-0.01494;-0.00129
1036.52;   35.325;   31.980; 5703.140; 0.00306; 0.00027
1037.07;   31.825;   32.980; 5634.340;-0.00108;-0.00009
1037.62;   27.025;   22.680; 5538.840; 0.00410; 0.00036
1038.17;  140.725;  153.680; 5465.440;-0.01241;-0.00108
1038.72;   -2.075;  -13.020; 5419.540; 0.01066; 0.00093
1039.27;  -15.275;   -2.720; 5313.940;-0.01245;-0.00108
1039.82;   31.325;   35.480; 5277.140;-0.00420;-0.00036
1040.37;  -23.675;  -33.720; 5173.340; 0.01029; 0.00089
1040.91;  -12.075;  -22.820; 5135.140; 0.01117; 0.00097
1041.46;   -7.675;   -4.420; 5014.240;-0.00345;-0.00030
1042.01;  -29.075;  -29.320; 4962.740; 0.00026; 0.00002
1042.56;    0.125;   -6.120; 4871.240; 0.00683; 0.00060
1043.11;    9.025;   28.380; 4860.340;-0.02143;-0.00187
1043.66;   64.725;   75.780; 4779.540;-0.01246;-0.00109
1044.20;   30.625;   14.580; 4738.440; 0.01841; 0.00161
1044.75;   63.425;   48.780; 4683.040; 0.01709; 0.00149
1045.30;   64.025;   63.080; 4585.740; 0.00112; 0.00010
1045.85;   -5.775;    6.680; 4510.240;-0.01500;-0.00131
1046.40;  -21.575;  -17.420; 4447.940;-0.00510;-0.00045
1046.94;  -15.175;   -9.920; 4426.440;-0.00655;-0.00057
1047.49;   26.225;   31.580; 4272.140;-0.00679;-0.00059
1048.04;   82.025;   76.180; 4311.640; 0.00749; 0.00066
1048.59;  -14.875;  -18.520; 4233.240; 0.00477; 0.00042
1049.13;  140.925;  159.380; 4211.040;-0.02456;-0.00215
1049.68;  -20.775;  -23.320; 4059.940; 0.00347; 0.00030
1050.23;   23.125;   22.980; 4062.640; 0.00020; 0.00002
1050.78;  -31.975;  -33.720; 3990.540; 0.00244; 0.00021
1051.32;   -9.375;   -8.920; 3946.840;-0.00065;-0.00006
1051.87;  290.925;  278.080; 3869.840; 0.01863; 0.00164
1052.42;    1.325;   19.980; 3825.340;-0.02752;-0.00242
1052.97;  241.925;  241.180; 3792.340; 0.00111; 0.00010
1053.51;    7.325;    5.580; 3734.840; 0.00265; 0.00023
1054.06;   47.125;   65.080; 3661.740;-0.02762;-0.00243
1054.61;   20.725;   23.180; 3613.040;-0.00386;-0.00034
1055.16;  -16.375;  -26.520; 3555.440; 0.01611; 0.00142
1055.70;   14.725;   -0.020; 3441.340; 0.02405; 0.00212
1056.25;  -20.575;  -34.420; 3388.740; 0.02299; 0.00203
1056.80;   -7.475;   13.080; 3359.040;-0.03456;-0.00305
1057.34;  -14.575;  -25.820; 3323.340; 0.01921; 0.00170
1057.89;   -9.075;    1.180; 3294.340;-0.01778;-0.00157
1058.44;   31.325;   40.680; 3243.440;-0.01646;-0.00146
1058.98;   -7.875;  -17.920; 3181.040; 0.01804; 0.00160
1059.53;   28.325;   23.580; 3089.840; 0.00867; 0.00077
1060.08;   11.325;    5.480; 3095.640; 0.01087; 0.00096
1060.62;  137.025;  139.680; 3037.940;-0.00500;-0.00044
1061.17;  -16.575;  -11.720; 2981.040;-0.00930;-0.00083
1061.72;   10.525;   20.180; 2925.640;-0.01886;-0.00167
1062.26;   45.325;   38.180; 2887.140; 0.01421; 0.00126
1062.81;   33.225;   38.380; 2868.640;-0.01047;-0.00093
1063.36;   23.925;   23.680; 2810.640; 0.00050; 0.00004
1063.90;   28.125;   32.180; 2776.140;-0.00853;-0.00076
1064.45;   13.225;    2.380; 2733.940; 0.02319; 0.00206
1064.99;   14.025;   16.980; 2665.640;-0.00644;-0.00057
1065.54;   -4.475;    5.980; 2665.140;-0.02315;-0.00206
1066.09;   43.325;   37.380; 2624.740; 0.01341; 0.00119
1066.63;   24.925;    6.880; 2613.240; 0.04123; 0.00368
1067.18;   99.225;   87.380; 2546.940; 0.02771; 0.00247
1067.72;   35.925;   26.180; 2507.940; 0.02314; 0.00207
1068.27;   -5.975;   -5.320; 2435.040;-0.00158;-0.00014
1068.82;   52.625;   61.280; 2427.340;-0.02119;-0.00189
1069.36;   25.625;   30.680; 2384.540;-0.01257;-0.00112
1069.91;   -9.575;  -18.120; 2395.540; 0.02147; 0.00192
1070.45;   16.125;   18.280; 2355.540;-0.00552;-0.00049
1071.00;  -20.775;   -7.420; 2277.640;-0.03463;-0.00310
1071.54;   10.925;   11.680; 2266.040;-0.00199;-0.00018
1072.09;   93.525;  102.280; 2286.540;-0.02349;-0.00210
1072.64;    7.825;   16.480; 2225.240;-0.02365;-0.00212
1073.18;  138.225;  143.180; 2212.340;-0.01364;-0.00122
1073.73;  200.525;  203.380; 2142.340;-0.00800;-0.00072
1074.27;    1.825;    8.980; 2113.340;-0.02024;-0.00182
1074.82;   60.325;   58.180; 2108.140; 0.00617; 0.00055
1075.36;   45.925;   59.180; 2087.140;-0.03878;-0.00349
1075.91;   34.525;   25.680; 2074.740; 0.02623; 0.00236
1076.45;   17.325;   29.880; 2031.240;-0.03768;-0.00339
1077.00;   13.025;   14.780; 1990.740;-0.00534;-0.00048
1077.54;   36.125;   40.080; 2002.540;-0.01224;-0.00110
1078.09;   42.425;   39.080; 1946.540; 0.01046; 0.00094
1078.63;    4.625;    5.380; 1925.340;-0.00239;-0.00022
1079.18;   11.225;   13.880; 1902.340;-0.00856;-0.00077
1079.72;   51.525;   47.280; 1872.140; 0.01385; 0.00125
1080.27;    1.025;   -1.120; 1833.740; 0.00711; 0.00064
1080.81;    6.925;   10.980; 1806.540;-0.01361;-0.00123
1081.36;  -20.375;   -5.420; 1759.940;-0.05108;-0.00462
1081.90;   91.525;   92.080; 1773.640;-0.00192;-0.00017
1082.44;   67.425;   70.480; 1742.540;-0.01076;-0.00097
1082.99;   52.125;   45.380; 1720.040; 0.02402; 0.00217
1083.53;    9.825;   24.880; 1669.840;-0.05447;-0.00493
1084.08;   52.325;   42.680; 1694.940; 0.03534; 0.00320
1084.62;   30.325;   35.380; 1650.140;-0.01885;-0.00171
1085.17;   38.025;   37.580; 1644.640; 0.00167; 0.00015
1085.71;    5.125;   13.980; 1604.940;-0.03369;-0.00306
1086.25;   42.925;   41.580; 1614.040; 0.00521; 0.00047
1086.80;   43.625;   39.080; 1558.740; 0.01792; 0.00163
1087.34;   30.525;   31.480; 1549.140;-0.00380;-0.00035
1087.89;   15.825;    7.380; 1518.340; 0.03409; 0.00310
1088.43;   30.725;   41.380; 1515.840;-0.04357;-0.00396
1088.97;   25.025;   40.480; 1494.940;-0.06415;-0.00584
1089.52;  235.925;  249.880; 1492.140;-0.05878;-0.00535
1090.06;  132.225;  123.280; 1451.240; 0.03813; 0.00347
1090.61;   32.525;   40.080; 1435.740;-0.03283;-0.00299
1091.15;  218.825;  214.080; 1394.140; 0.02095; 0.00191
1091.69;   49.025;   40.280; 1365.740; 0.03919; 0.00358
1092.24;   37.125;   47.380; 1368.940;-0.04664;-0.00426
1092.78;   55.825;   79.380; 1337.940;-0.10923;-0.00998
1093.32;   47.625;   45.980; 1350.740; 0.00762; 0.00070
1093.87;   58.625;   63.080; 1327.440;-0.02114;-0.00193
1094.41;   19.025;   18.580; 1272.140; 0.00214; 0.00020
1094.95;  186.425;  178.080; 1282.440; 0.04054; 0.00371
1095.50;   -6.175;   -6.520; 1250.140; 0.00171; 0.00016
1096.04;   42.225;   51.480; 1268.140;-0.04632;-0.00424
1096.58;  205.525;  203.680; 1217.440; 0.00937; 0.00086
1097.13;   -8.875;   -8.620; 1182.740;-0.00131;-0.00012
1097.67;   98.525;  101.380; 1204.340;-0.01494;-0.00137
1098.21;   -5.075;    9.280; 1162.040;-0.07603;-0.00698
1098.76;   15.725;   17.780; 1142.840;-0.01104;-0.00101
1099.30;   16.325;   23.980; 1130.140;-0.04155;-0.00382
1099.84;   14.425;   16.280; 1116.240;-0.01024;-0.00094
1100.38;   63.025;   59.380; 1094.240; 0.02037; 0.00187

