
Integration time [ms]: 500.000
Averaging Nr. [scans]: 10
Smoothing Nr. [pixels]: 0
Data measured with spectrometer [name]: 1901096U1
Wave   ;Sample   ;Dark     ;Reference;Absolute Irradiance  ;Photon Counts
[nm]   ;[counts] ;[counts] ;[counts] ;[µWatt/cm?/nm]       ;[µMol/s/m?/nm]

 155.82;  219.808;  220.336;   69.357; 0.00000; 0.00000
 156.42;  253.021;  239.240;   98.706; 0.00000; 0.00000
 157.03;  234.222;  223.041;   92.018; 0.00000; 0.00000
 157.63;  222.019;  212.140;   78.786; 0.00000; 0.00000
 158.23;  230.519;  215.440;   94.680; 0.00000; 0.00000
 158.84;  241.426;  233.042;  119.574; 0.00000; 0.00000
 159.44;  230.816;  229.939;   82.550; 0.00000; 0.00000
 160.04;  241.013;  233.638;  102.110; 0.00000; 0.00000
 160.64;  300.915;  291.439;   93.044; 0.00000; 0.00000
 161.25;  251.322;  242.041;  112.923; 0.00000; 0.00000
 161.85;  281.918;  250.139;  109.378; 0.00000; 0.00000
 162.45;  243.712;  214.738;   90.607; 0.00000; 0.00000
 163.06;  268.115;  268.439;   94.943; 0.00000; 0.00000
 163.66;  261.724;  254.041;   96.745; 0.00000; 0.00000
 164.26;  235.905;  228.235;   70.019; 0.00000; 0.00000
 164.86;  238.107;  223.836;  112.245; 0.00000; 0.00000
 165.47;  248.208;  222.006;  144.771; 0.00000; 0.00000
 166.07;  253.304;  227.405;  171.417; 0.00000; 0.00000
 166.67;  253.501;  221.004;  157.886; 0.00000; 0.00000
 167.27;  250.406;  227.505;  165.443; 0.00000; 0.00000
 167.88;  263.601;  243.204;  176.084; 0.00000; 0.00000
 168.48;  311.695;  270.602;  149.416; 0.00000; 0.00000
 169.08;  269.999;  255.003;  149.165; 0.00000; 0.00000
 169.68;  276.813;  266.507;  196.226; 0.00000; 0.00000
 170.29;  292.795;  279.502;  174.114; 0.00000; 0.00000
 170.89;  264.500;  246.104;  182.177; 0.00000; 0.00000
 171.49;  297.800;  267.103;  158.870; 0.00000; 0.00000
 172.09;  273.102;  243.304;  197.793; 0.00000; 0.00000
 172.70;  253.889;  241.700;  178.950; 0.00000; 0.00000
 173.30;  344.595;  312.302;  192.313; 0.00000; 0.00000
 173.90;  239.784;  227.899;  149.290; 0.00000; 0.00000
 174.50;  390.989;  342.200;  169.250; 0.00000; 0.00000
 175.11;  339.993;  290.801;  178.397; 0.00000; 0.00000
 175.71;  231.104;  202.005;  163.326; 0.00000; 0.00000
 176.31;  232.903;  201.904;  157.407; 0.00000; 0.00000
 176.91;  257.092;  218.401;  166.476; 0.00000; 0.00000
 177.51;  264.088;  227.000;  169.037; 0.00000; 0.00000
 178.12;  338.491;  302.301;  189.172; 0.00000; 0.00000
 178.72;  316.299;  269.103;  188.859; 0.00000; 0.00000
 179.32;  309.992;  283.101;  182.185; 0.00000; 0.00000
 179.92;  242.592;  227.101;  182.480; 0.00000; 0.00000
 180.52;  402.504;  333.605;  194.824; 0.00000; 0.00000
 181.13;  282.584;  252.699;  169.191; 0.00000; 0.00000
 181.73;  234.496;  213.902;  204.825; 0.00000; 0.00000
 182.33;  276.485;  243.799;  191.492; 0.00000; 0.00000
 182.93;  252.687;  233.800;  210.121; 0.00000; 0.00000
 183.54;  205.378;  182.997;  146.515; 0.00000; 0.00000
 184.14;  238.596;  204.202;  159.832; 0.00000; 0.00000
 184.74;  320.896;  274.302;  211.228; 0.00000; 0.00000
 185.34;  244.805;  224.105;  232.734; 0.08463; 0.00131
 185.94;  286.085;  259.299;  205.003; 0.13254; 0.00206
 186.54;  238.098;  238.903;  234.146;-0.00361;-0.00006
 187.15;  219.991;  203.901;  218.473; 0.07754; 0.00121
 187.75;  349.008;  294.206;  238.667; 0.16527; 0.00259
 188.35;  317.286;  278.399;  236.604; 0.15292; 0.00241
 188.95;  219.601;  208.004;  223.885; 0.03800; 0.00060
 189.55;  201.188;  171.400;  204.335; 0.11324; 0.00179
 190.16;  286.990;  253.900;  250.453; 0.12783; 0.00203
 190.76;  213.883;  196.298;  231.976; 0.06250; 0.00100
 191.36;  267.086;  260.299;  258.608; 0.02340; 0.00037
 191.96;  228.497;  216.002;  282.334; 0.03369; 0.00054
 192.56;  233.186;  216.599;  277.413; 0.04710; 0.00076
 193.16;  251.583;  222.298;  299.568; 0.09022; 0.00146
 193.77;  309.474;  280.796;  305.671; 0.10416; 0.00169
 194.37;  226.693;  198.501;  293.691; 0.07418; 0.00121
 194.97;  206.586;  197.299;  303.214; 0.02383; 0.00039
 195.57;  202.101;  200.904;  323.385; 0.00225; 0.00004
 196.17;  271.973;  239.195;  329.855; 0.12033; 0.00197
 196.77;  220.187;  201.800;  362.624; 0.04495; 0.00074
 197.38;  220.386;  209.299;  385.309; 0.02597; 0.00043
 197.98;  301.279;  255.797;  391.422; 0.12285; 0.00203
 198.58;  242.296;  235.002;  441.930; 0.01482; 0.00025
 199.18;  201.194;  185.202;  429.902; 0.03215; 0.00054
 199.78;  333.874;  269.496;  456.870; 0.22152; 0.00370
 200.38;  256.489;  239.300;  499.846; 0.03613; 0.00061
 200.98;  193.393;  178.001;  502.986; 0.02711; 0.00046
 201.59;  263.515;  215.408;  611.653; 0.06140; 0.00103
 202.19;  216.506;  224.805;  605.646;-0.01200;-0.00020
 202.79;  216.489;  197.500;  587.448; 0.03699; 0.00063
 203.39;  170.992;  161.601;  644.186; 0.01765; 0.00030
 203.99;  234.798;  222.003;  740.949; 0.01954; 0.00033
 204.59;  233.594;  222.002;  733.510; 0.01934; 0.00033
 205.19;  235.184;  216.999;  796.291; 0.04148; 0.00071
 205.79;  242.396;  207.602;  825.824; 0.05747; 0.00099
 206.40;  194.593;  198.301;  875.395;-0.00629;-0.00011
 207.00;  248.497;  228.303;  907.041; 0.03181; 0.00055
 207.60;  214.393;  190.601;  928.798; 0.03909; 0.00068
 208.20;  214.307;  203.105; 1019.353; 0.01422; 0.00025
 208.80;  195.108;  193.206; 1029.973; 0.00238; 0.00004
 209.40;  227.417;  199.209; 1141.880; 0.02976; 0.00052
 210.00;  208.095;  202.402; 1124.417; 0.00810; 0.00014
 210.60;  219.200;  201.703; 1170.175; 0.02243; 0.00039
 211.20;  313.198;  273.303; 1254.557; 0.05143; 0.00091
 211.81;  171.598;  153.303; 1237.652; 0.02335; 0.00041
 212.41;  197.112;  190.407; 1355.714; 0.00655; 0.00012
 213.01;  218.720;  189.210; 1400.416; 0.02427; 0.00043
 213.61;  197.904;  172.005; 1399.523; 0.02650; 0.00047
 214.21;  201.709;  181.706; 1517.477; 0.01839; 0.00033
 214.81;  202.914;  185.208; 1599.136; 0.01452; 0.00026
 215.41;  253.108;  224.406; 1677.966; 0.02717; 0.00049
 216.01;  261.007;  255.406; 1747.260; 0.00496; 0.00009
 216.61;  246.986;  220.499; 1794.906; 0.03591; 0.00065
 217.21;  224.618;  218.909; 1900.484; 0.00392; 0.00007
 217.81;  184.622;  167.410; 1966.536; 0.01008; 0.00018
 218.41;  202.115;  187.108; 2070.058; 0.01001; 0.00018
 219.02;  195.723;  188.510; 2134.247; 0.00399; 0.00007
 219.62;  227.510;  209.407; 2229.697; 0.01198; 0.00022
 220.22;  222.811;  200.407; 2296.000; 0.01375; 0.00025
 220.82;  195.318;  178.909; 2396.090; 0.00844; 0.00016
 221.42;  210.820;  197.310; 2534.516; 0.00637; 0.00012
 222.02;  181.717;  170.809; 2602.876; 0.00516; 0.00010
 222.62;  176.316;  160.508; 2644.667; 0.00738; 0.00014
 223.22;  201.915;  179.408; 2747.058; 0.01159; 0.00022
 223.82;  194.816;  180.408; 2851.961; 0.00690; 0.00013
 224.42;  217.314;  216.608; 2979.536; 0.00031; 0.00001
 225.02;  221.215;  189.208; 3070.857; 0.01309; 0.00025
 225.62;  202.228;  170.212; 3154.212; 0.01042; 0.00020
 226.22;  204.620;  190.210; 3251.918; 0.00539; 0.00010
 226.82;  211.818;  178.409; 3374.683; 0.01374; 0.00026
 227.42;  195.304;  191.205; 3459.925; 0.00209; 0.00004
 228.02;  224.906;  208.305; 3557.146; 0.00744; 0.00014
 228.62;  143.322;  137.910; 3720.333; 0.00194; 0.00004
 229.22;  261.624;  235.611; 3822.360; 0.00815; 0.00016
 229.82;  186.994;  177.202; 3910.707; 0.00567; 0.00011
 230.43;  216.819;  202.209; 4060.498; 0.00480; 0.00009
 231.03;  193.707;  170.305; 4165.853; 0.00926; 0.00018
 231.63;  207.405;  166.305; 4299.932; 0.01612; 0.00031
 232.23;  194.010;  184.506; 4439.690; 0.00340; 0.00007
 232.83;  194.412;  186.107; 4570.914; 0.00271; 0.00005
 233.43;  225.813;  198.208; 4679.232; 0.00863; 0.00017
 234.03;  196.714;  174.508; 4822.739; 0.00634; 0.00012
 234.63;  154.621;  146.210; 4963.625; 0.00209; 0.00004
 235.23;  215.619;  189.309; 5087.302; 0.00653; 0.00013
 235.83;  183.309;  175.706; 5158.578; 0.00227; 0.00004
 236.43;  223.399;  189.403; 5238.061; 0.01168; 0.00023
 237.03;  206.208;  175.506; 5367.267; 0.00885; 0.00018
 237.63;  322.311;  255.007; 5476.106; 0.01708; 0.00034
 238.23;  202.019;  178.109; 5557.100; 0.00526; 0.00010
 238.83;  197.319;  163.509; 5587.205; 0.00758; 0.00015
 239.43;  202.005;  173.305; 5669.235; 0.00803; 0.00016
 240.03;  222.718;  188.909; 5684.486; 0.00781; 0.00016
 240.63;  183.428;  169.912; 5805.009; 0.00246; 0.00005
 241.23;  227.810;  210.407; 5803.599; 0.00421; 0.00008
 241.83;  173.018;  170.609; 5757.283; 0.00053; 0.00001
 242.43;  203.212;  188.907; 5830.420; 0.00355; 0.00007
 243.03;  185.819;  175.209; 5665.396; 0.00210; 0.00004
 243.63;  178.814;  161.208; 5769.037; 0.00361; 0.00007
 244.23;  178.804;  154.805; 5796.819; 0.00690; 0.00014
 244.83;  190.315;  150.808; 5806.754; 0.00843; 0.00017
 245.43;  207.103;  189.204; 5823.208; 0.00454; 0.00009
 246.02;  407.210;  345.506; 5800.188; 0.01377; 0.00028
 246.62;  180.104;  176.605; 5811.522; 0.00095; 0.00002
 247.22;  180.222;  152.710; 5818.533; 0.00502; 0.00010
 247.82;  234.120;  205.209; 5941.708; 0.00517; 0.00011
 248.42;  315.312;  264.607; 5924.620; 0.01035; 0.00021
 249.02;  227.316;  199.908; 5931.763; 0.00523; 0.00011
 249.62;  183.724;  169.111; 5978.860; 0.00242; 0.00005
 250.22;  269.121;  228.510; 6035.626; 0.00700; 0.00015
 250.82;  228.513;  196.608; 6063.934; 0.00629; 0.00013
 251.42;  203.526;  197.211; 6166.982; 0.00096; 0.00002
 252.02;  158.413;  148.708; 6146.432; 0.00179; 0.00004
 252.62;  196.832;  173.413; 6316.257; 0.00309; 0.00007
 253.22;  257.011;  225.507; 6362.600; 0.00587; 0.00012
 253.82;  153.823;  144.310; 6451.444; 0.00162; 0.00003
 254.42;  176.317;  168.609; 6595.581; 0.00136; 0.00003
 255.02;  214.024;  184.211; 6709.758; 0.00401; 0.00009
 255.62;  151.722;  144.710; 6866.335; 0.00101; 0.00002
 256.22;  323.711;  273.107; 6997.500; 0.00924; 0.00020
 256.82;  182.509;  163.506; 7151.784; 0.00322; 0.00007
 257.41;  179.725;  158.811; 7263.866; 0.00271; 0.00006
 258.01;  187.815;  153.908; 7368.656; 0.00503; 0.00011
 258.61;  236.422;  207.910; 7537.434; 0.00359; 0.00008
 259.21;  177.112;  158.207; 7585.914; 0.00282; 0.00006
 259.81;  245.111;  197.507; 7627.906; 0.00719; 0.00016
 260.41;  329.212;  275.007; 7729.113; 0.00778; 0.00017
 261.01;  147.428;  136.212; 7804.604; 0.00121; 0.00003
 261.61;  179.926;  159.711; 7874.186; 0.00209; 0.00005
 262.21;  163.808;  159.106; 7809.864; 0.00066; 0.00001
 262.81;  140.710;  140.007; 7883.093; 0.00009; 0.00000
 263.41;  201.524;  151.011; 7851.264; 0.00534; 0.00012
 264.00;  434.327;  360.812; 7910.396; 0.00693; 0.00015
 264.60;  206.122;  178.010; 7832.833; 0.00287; 0.00006
 265.20;  161.619;  141.709; 7811.800; 0.00217; 0.00005
 265.80;  166.818;  170.309; 7807.390;-0.00036;-0.00001
 266.40;  200.209;  171.206; 7758.985; 0.00364; 0.00008
 267.00;  252.518;  211.909; 7744.586; 0.00425; 0.00009
 267.60;  212.023;  181.510; 7713.844; 0.00273; 0.00006
 268.20;  214.122;  192.610; 7658.534; 0.00177; 0.00004
 268.80;  148.621;  134.910; 7613.828; 0.00113; 0.00003
 269.39;  227.302;  199.004; 7639.694; 0.00329; 0.00007
 269.99;  156.215;  151.208; 7545.848; 0.00042; 0.00001
 270.59;  195.718;  168.409; 7557.185; 0.00220; 0.00005
 271.19;  151.215;  153.308; 7463.747;-0.00016; 0.00000
 271.79;  202.412;  175.907; 7430.716; 0.00194; 0.00004
 272.39;  171.912;  163.307; 7390.417; 0.00057; 0.00001
 272.99;  168.002;  150.304; 7366.798; 0.00133; 0.00003
 273.59;  170.099;  146.003; 7394.867; 0.00171; 0.00004
 274.18;  199.404;  171.305; 7372.027; 0.00168; 0.00004
 274.78;  191.698;  165.703; 7463.749; 0.00158; 0.00004
 275.38;  442.082;  361.998; 7541.064; 0.00557; 0.00013
 275.98;  182.373;  158.695; 7555.049; 0.00160; 0.00004
 276.58;  174.466;  172.593; 7679.967; 0.00013; 0.00000
 277.18;  189.376;  140.996; 7761.887; 0.00234; 0.00005
 277.78;  193.260;  168.891; 7885.197; 0.00130; 0.00003
 278.37;  151.944;  144.387; 8094.415; 0.00040; 0.00001
 278.97;  172.355;  161.590; 8236.837; 0.00042; 0.00001
 279.57;  189.935;  162.284; 8401.201; 0.00114; 0.00003
 280.17;  173.333;  139.283; 8585.075; 0.00129; 0.00003
 280.77;  191.425;  170.081; 8739.990; 0.00080; 0.00002
 281.37;  190.524;  178.680; 8921.174; 0.00042; 0.00001
 281.96;  194.898;  174.472; 9108.466; 0.00082; 0.00002
 282.56;  218.307;  173.175; 9270.274; 0.00154; 0.00004
 283.16;  205.893;  179.071; 9355.810; 0.00101; 0.00002
 283.76;  167.893;  139.371; 9505.805; 0.00094; 0.00002
 284.36;  330.281;  274.567; 9628.166; 0.00201; 0.00005
 284.95;  167.360;  159.561; 9802.511; 0.00034; 0.00001
 285.55;  182.572;  171.965; 9973.057; 0.00039; 0.00001
 286.15;  201.381;  174.867;10153.664; 0.00088; 0.00002
 286.75;  234.857;  205.160;10252.877; 0.00125; 0.00003
 287.35;  177.263;  142.062;10345.749; 0.00139; 0.00003
 287.94;  157.871;  117.664;10437.340; 0.00152; 0.00004
 288.54;  166.368;  144.863;10563.308; 0.00085; 0.00002
 289.14;  163.167;  139.663;10625.296; 0.00100; 0.00002
 289.74;  175.570;  148.364;10698.339; 0.00120; 0.00003
 290.34;  179.692;  159.671;10794.693; 0.00070; 0.00002
 290.93;  172.485;  143.468;10889.406; 0.00117; 0.00003
 291.53;  167.090;  151.470;10882.075; 0.00061; 0.00001
 292.13;  142.186;  135.669;10986.727; 0.00027; 0.00001
 292.73;  198.476;  170.066;10956.902; 0.00141; 0.00003
 293.33;  166.994;  120.771;10919.612; 0.00197; 0.00005
 293.92;  160.699;  140.573;10969.773; 0.00085; 0.00002
 294.52;  139.004;  127.074;10992.032; 0.00049; 0.00001
 295.12;  166.199;  145.273;10934.672; 0.00094; 0.00002
 295.72;  159.497;  125.172;10815.554; 0.00163; 0.00004
 296.31;  213.611;  188.876;10904.618; 0.00105; 0.00003
 296.91;  216.392;  192.771;10752.392; 0.00126; 0.00003
 297.51;  203.806;  161.875;10565.563; 0.00189; 0.00005
 298.11;  410.907;  338.175;10514.872; 0.00308; 0.00008
 298.70;  168.296;  142.872;10425.745; 0.00115; 0.00003
 299.30;  129.462;  120.561;10340.539; 0.00052; 0.00001
 299.90;  176.050;  166.258;10399.297; 0.00054; 0.00001
 300.50;  231.870;  191.364;10320.936; 0.00204; 0.00005
 301.09;  150.468;  125.663;10404.916; 0.00153; 0.00004
 301.69;  175.483;  145.168;10530.383; 0.00158; 0.00004
 302.29;  147.670;  130.664;10625.238; 0.00109; 0.00003
 302.89;  162.675;  132.366;10712.996; 0.00193; 0.00005
 303.48;  208.065;  196.462;10883.577; 0.00091; 0.00002
 304.08;  163.692;  143.871;11034.496; 0.00152; 0.00004
 304.68;  176.278;  148.966;11199.933; 0.00258; 0.00007
 305.28;  159.679;  157.467;11331.138; 0.00022; 0.00001
 305.87;  135.794;  121.071;11557.216; 0.00130; 0.00003
 306.47;  163.485;  118.968;11629.007; 0.00433; 0.00011
 307.07;  192.696;  157.372;11817.946; 0.00311; 0.00008
 307.67;  191.908;  156.475;12043.183; 0.00289; 0.00007
 308.26;  150.398;  143.772;12135.263; 0.00059; 0.00002
 308.86;  187.173;  167.665;12308.970; 0.00210; 0.00005
 309.46;  153.997;  137.072;12516.957; 0.00150; 0.00004
 310.05;  157.182;  141.167;12737.271; 0.00167; 0.00004
 310.65;  183.315;  158.578;12857.363; 0.00206; 0.00005
 311.25;  196.492;  160.371;12935.298; 0.00341; 0.00009
 311.85;  198.684;  156.568;13145.596; 0.00435; 0.00011
 312.44;  168.285;  149.168;13347.612; 0.00190; 0.00005
 313.04;  167.393;  136.371;13485.708; 0.00292; 0.00008
 313.64;  177.782;  149.968;13620.981; 0.00298; 0.00008
 314.23;  190.790;  160.970;13715.076; 0.00289; 0.00008
 314.83;  473.186;  384.969;13936.025; 0.00923; 0.00024
 315.43;  164.775;  127.165;13967.090; 0.00420; 0.00011
 316.02;  201.203;  176.974;14040.930; 0.00219; 0.00006
 316.62;  189.189;  147.370;14125.363; 0.00414; 0.00011
 317.22;  176.395;  160.472;14245.032; 0.00150; 0.00004
 317.81;  146.998;  137.272;14233.762; 0.00093; 0.00002
 318.41;  166.401;  144.273;14263.897; 0.00207; 0.00005
 319.01;  164.484;  140.268;14427.401; 0.00247; 0.00007
 319.60;  196.988;  175.869;14388.747; 0.00205; 0.00005
 320.20;  134.591;  124.570;14258.389; 0.00099; 0.00003
 320.80;  169.087;  149.269;14334.539; 0.00204; 0.00005
 321.39;  156.688;  149.269;14417.251; 0.00076; 0.00002
 321.99;  159.486;  145.369;14396.221; 0.00148; 0.00004
 322.59;  234.498;  198.472;14327.565; 0.00348; 0.00009
 323.18;  156.595;  138.872;14288.034; 0.00178; 0.00005
 323.78;  184.503;  156.574;14312.623; 0.00258; 0.00007
 324.38;  141.689;  136.770;14236.162; 0.00050; 0.00001
 324.97;  154.500;  131.673;14253.394; 0.00218; 0.00006
 325.57;  185.189;  153.870;14167.559; 0.00321; 0.00009
 326.17;  197.705;  164.075;14160.352; 0.00312; 0.00008
 326.76;  169.893;  151.871;14123.806; 0.00181; 0.00005
 327.36;  211.698;  170.672;14073.860; 0.00381; 0.00010
 327.95;  149.403;  126.274;13930.123; 0.00201; 0.00006
 328.55;  157.802;  132.874;13852.519; 0.00215; 0.00006
 329.15;  394.385;  326.868;13731.407; 0.00634; 0.00017
 329.74;  153.215;  131.678;13598.370; 0.00171; 0.00005
 330.34;  151.608;  151.176;13577.890; 0.00003; 0.00000
 330.94;  196.380;  163.167;13380.550; 0.00294; 0.00008
 331.53;  156.385;  144.968;13220.110; 0.00097; 0.00003
 332.13;  137.903;  114.274;13089.027; 0.00197; 0.00005
 332.72;  308.203;  237.274;12940.220; 0.00621; 0.00017
 333.32;  159.211;  140.176;12869.816; 0.00167; 0.00005
 333.92;  140.816;  123.678;12706.579; 0.00142; 0.00004
 334.51;  134.913;  121.477;12609.342; 0.00117; 0.00003
 335.11;  181.909;  147.876;12467.899; 0.00301; 0.00008
 335.70;  156.221;  132.879;12368.236; 0.00187; 0.00005
 336.30;  219.941;  174.086;12332.478; 0.00332; 0.00009
 336.90;  204.824;  153.880;12252.377; 0.00389; 0.00011
 337.49;  153.022;  121.780;12294.456; 0.00231; 0.00007
 338.09;  176.923;  150.080;12364.864; 0.00194; 0.00005
 338.68;  212.942;  159.586;12237.490; 0.00345; 0.00010
 339.28;  185.639;  133.585;12302.356; 0.00339; 0.00010
 339.88;  204.247;  153.887;12390.342; 0.00321; 0.00009
 340.47;  230.342;  177.686;12416.990; 0.00340; 0.00010
 341.07;  223.342;  169.486;12531.981; 0.00342; 0.00010
 341.66;  164.748;  109.888;12623.655; 0.00335; 0.00010
 342.26;  202.739;  132.885;12797.052; 0.00435; 0.00012
 342.85;  222.244;  148.086;12937.109; 0.00427; 0.00012
 343.45;  203.861;  127.392;12984.911; 0.00409; 0.00012
 344.05;  257.029;  157.382;13082.432; 0.00540; 0.00016
 344.64;  268.387;  156.969;13194.041; 0.00566; 0.00016
 345.24;  250.009;  119.945;13265.813; 0.00644; 0.00019
 345.83;  314.659;  163.730;13312.418; 0.00753; 0.00022
 346.43;  289.297;  115.042;13468.470; 0.00736; 0.00021
 347.02;  386.206;  183.844;13572.576; 0.00832; 0.00024
 347.62;  311.422;   84.249;13379.367; 0.00900; 0.00026
 348.21;  438.010;  151.546;13533.522; 0.01143; 0.00033
 348.81;  506.912;  181.646;13381.845; 0.01253; 0.00037
 349.41;  547.526;  148.051;13369.417; 0.01515; 0.00044
 350.00;  586.421;  126.049;13470.448; 0.01810; 0.00053
 350.60;  637.517;  126.948;13588.306; 0.02009; 0.00059
 351.19;  787.715;  152.847;13759.078; 0.02432; 0.00071
 351.79;  874.023;  173.150;13840.276; 0.02472; 0.00073
 352.38;  934.326;  111.051;13938.916; 0.02772; 0.00082
 352.98; 1080.394;  141.641;13979.839; 0.03245; 0.00096
 353.57; 1194.873;  135.134;14008.884; 0.03528; 0.00104
 354.17; 1284.978;  100.336;14067.448; 0.03715; 0.00110
 354.76; 1498.756;  155.229;14095.882; 0.04100; 0.00122
 355.36; 1554.229;  135.021;14156.360; 0.04262; 0.00127
 355.95; 1664.493;   93.010;14214.335; 0.04588; 0.00136
 356.55; 1773.462;  103.101;14229.371; 0.04762; 0.00142
 357.14; 1875.028;  121.490;14325.365; 0.04779; 0.00143
 357.74; 1956.701;  132.882;14177.550; 0.04874; 0.00146
 358.33; 2019.556;  137.768;14059.315; 0.04974; 0.00149
 358.93; 2009.803;  136.352;13923.782; 0.04997; 0.00150
 359.52; 2027.774;  114.643;13798.344; 0.04890; 0.00147
 360.12; 2050.335;  116.631;13719.972; 0.04932; 0.00148
 360.71; 2044.433;  136.431;13707.554; 0.04747; 0.00143
 361.31; 2054.817;  157.026;13621.268; 0.04637; 0.00140
 361.90; 2190.398;  322.920;13507.738; 0.04613; 0.00140
 362.50; 1906.578;  143.914;13484.098; 0.04463; 0.00135
 363.09; 1854.485;  124.816;13341.582; 0.04416; 0.00134
 363.69; 1816.713;  123.025;13261.120; 0.04422; 0.00134
 364.28; 1794.752;  131.937;13269.773; 0.04418; 0.00135
 364.88; 1882.968;  189.041;13351.165; 0.04706; 0.00143
 365.47; 1825.803;  148.852;13342.885; 0.04547; 0.00139
 366.06; 1771.934;  123.162;13257.149; 0.04544; 0.00139
 366.66; 1759.348;  131.966;13117.317; 0.04575; 0.00140
 367.25; 1802.355;  149.468;13006.099; 0.04647; 0.00143
 367.85; 1762.473;  118.174;12998.112; 0.04486; 0.00138
 368.44; 1857.448;  195.066;12809.111; 0.04559; 0.00140
 369.04; 1759.222;  138.258;12658.104; 0.04481; 0.00138
 369.63; 1740.007;  155.053;12538.629; 0.04334; 0.00134
 370.23; 1691.889;  130.248;12507.819; 0.04319; 0.00134
 370.82; 1662.064;  127.040;12275.616; 0.04406; 0.00137
 371.41; 1591.778;  118.644;12167.683; 0.04244; 0.00132
 372.01; 1545.072;  140.643;12115.712; 0.04131; 0.00128
 372.60; 1471.784;  117.146;11975.456; 0.04094; 0.00127
 373.20; 1478.710;  174.654;12039.964; 0.03853; 0.00120
 373.79; 1365.333;  147.261;11941.740; 0.03512; 0.00110
 374.39; 1235.923;  135.358;11902.018; 0.03215; 0.00101
 374.98; 1166.322;  140.058;11792.806; 0.03005; 0.00094
 375.57; 1124.813;  132.655;11721.304; 0.02972; 0.00093
 376.17; 1044.901;  148.552;11796.660; 0.02706; 0.00085
 376.76;  975.513;  126.855;11721.704; 0.02571; 0.00081
 377.36;  888.316;  108.556;11727.335; 0.02368; 0.00075
 377.95;  839.022;  123.558;11721.412; 0.02143; 0.00068
 378.55;  789.422;  127.358;11711.712; 0.01997; 0.00063
 379.14;  740.740;  124.964;11709.428; 0.01839; 0.00058
 379.73;  654.900;  107.651;11636.354; 0.01696; 0.00054
 380.33;  652.114;  127.356;11703.912; 0.01596; 0.00051
 380.92;  625.108;  140.554;11668.144; 0.01490; 0.00047
 381.51;  579.127;  150.860;11686.070; 0.01298; 0.00041
 382.11;  501.525;  107.159;11643.046; 0.01200; 0.00038
 382.70;  512.010;  150.654;11603.363; 0.01117; 0.00036
 383.30;  468.317;  131.356;11590.348; 0.01031; 0.00033
 383.89;  486.107;  148.153;11709.427; 0.01034; 0.00033
 384.48;  421.804;  116.153;11665.995; 0.00935; 0.00030
 385.08;  440.409;  135.354;11854.352; 0.00929; 0.00030
 385.67;  350.315;  111.656;11824.527; 0.00711; 0.00023
 386.27;  361.116;  119.756;11982.236; 0.00718; 0.00023
 386.86;  352.604;  118.553;12038.498; 0.00701; 0.00023
 387.45;  336.513;  105.955;12123.205; 0.00679; 0.00022
 388.05;  365.020;  157.557;12277.087; 0.00600; 0.00019
 388.64;  372.325;  161.559;12483.044; 0.00608; 0.00020
 389.23;  327.620;  148.357;12506.880; 0.00512; 0.00017
 389.83;  271.609;  119.954;12733.854; 0.00432; 0.00014
 390.42;  321.112;  151.455;13005.489; 0.00474; 0.00015
 391.01;  260.734;  118.762;13122.046; 0.00390; 0.00013
 391.61;  251.710;  112.254;13136.770; 0.00385; 0.00013
 392.20;  268.408;  129.354;13389.848; 0.00380; 0.00012
 392.79;  249.114;  110.456;13482.314; 0.00374; 0.00012
 393.39;  306.508;  176.754;13714.141; 0.00346; 0.00011
 393.98;  215.019;   96.957;13887.473; 0.00311; 0.00010
 394.57;  265.394;  144.349;14119.877; 0.00319; 0.00011
 395.17;  298.423;  181.358;14342.017; 0.00300; 0.00010
 395.76;  277.502;  157.252;14398.170; 0.00311; 0.00010
 396.35;  240.019;  121.657;14723.368; 0.00299; 0.00010
 396.95;  227.816;  153.556;14851.736; 0.00186; 0.00006
 397.54;  239.818;  129.257;15011.260; 0.00273; 0.00009
 398.13;  343.724;  210.558;15237.327; 0.00326; 0.00011
 398.73;  218.021;  137.058;15364.602; 0.00195; 0.00006
 399.32;  219.102;  116.952;15491.473; 0.00246; 0.00008
 399.91;  195.217;  120.357;15600.753; 0.00177; 0.00006
 400.50;  224.611;  142.255;15697.381; 0.00195; 0.00007
 401.10;  238.126;  151.159;15828.054; 0.00203; 0.00007
 401.69;  207.918;  127.157;15854.460; 0.00187; 0.00006
 402.28;  205.119;  132.357;15897.175; 0.00167; 0.00006
 402.88;  214.619;  140.157;15970.475; 0.00170; 0.00006
 403.47;  220.620;  117.857;16008.786; 0.00234; 0.00008
 404.06;  246.717;  152.956;16056.750; 0.00213; 0.00007
 404.66;  210.519;  146.857;16006.671; 0.00144; 0.00005
 405.25;  211.505;  155.853;16161.003; 0.00126; 0.00004
 405.84;  179.630;  134.860;16197.799; 0.00100; 0.00003
 406.43;  166.222;  110.258;16343.805; 0.00125; 0.00004
 407.03;  227.625;  159.759;16413.145; 0.00150; 0.00005
 407.62;  181.495;  114.250;16282.092; 0.00151; 0.00005
 408.21;  286.921;  202.758;16281.894; 0.00188; 0.00006
 408.80;  178.311;  111.055;16313.383; 0.00149; 0.00005
 409.40;  175.426;  111.459;16243.061; 0.00141; 0.00005
 409.99;  215.419;  148.957;16360.174; 0.00147; 0.00005
 410.58;  154.135;   97.362;16266.062; 0.00125; 0.00004
 411.17;  174.532;  109.861;16281.023; 0.00143; 0.00005
 411.77;  192.616;  151.656;16300.337; 0.00091; 0.00003
 412.36;  174.123;  108.458;16211.225; 0.00147; 0.00005
 412.95;  170.935;  117.362;16312.261; 0.00118; 0.00004
 413.54;  182.439;  127.563;16200.710; 0.00122; 0.00004
 414.14;  191.637;  135.163;16218.084; 0.00126; 0.00004
 414.73;  138.527;   94.360;15995.170; 0.00099; 0.00003
 415.32;  169.535;  111.262;16069.668; 0.00131; 0.00005
 415.91;  169.149;  109.366;15987.828; 0.00135; 0.00005
 416.50;  157.943;   95.064;15943.356; 0.00142; 0.00005
 417.10;  148.434;  111.162;15912.947; 0.00085; 0.00003
 417.69;  254.740;  183.263;15903.020; 0.00164; 0.00006
 418.28;  198.340;  141.563;15902.022; 0.00131; 0.00005
 418.87;  198.748;  148.466;15922.014; 0.00116; 0.00004
 419.47;  194.742;  126.764;15950.140; 0.00158; 0.00006
 420.06;  225.562;  168.670;15879.978; 0.00132; 0.00005
 420.65;  210.342;  155.164;15894.348; 0.00130; 0.00005
 421.24;  160.159;  120.869;15789.352; 0.00093; 0.00003
 421.83;  155.157;  107.869;15610.418; 0.00113; 0.00004
 422.43;  163.355;  123.968;15405.994; 0.00095; 0.00003
 423.02;  178.944;  152.165;15476.169; 0.00065; 0.00002
 423.61;  210.675;  162.074;15425.441; 0.00118; 0.00004
 424.20;  157.968;  134.772;15117.051; 0.00057; 0.00002
 424.79;  203.477;  145.875;15050.664; 0.00142; 0.00005
 425.38;  157.864;  120.671;14884.408; 0.00093; 0.00003
 425.98;  137.862;  106.470;14787.487; 0.00079; 0.00003
 426.57;  239.280;  185.876;14780.592; 0.00135; 0.00005
 427.16;  259.784;  196.677;14687.646; 0.00160; 0.00006
 427.75;  155.474;  113.374;14634.427; 0.00109; 0.00004
 428.34;  145.982;  105.476;14516.915; 0.00105; 0.00004
 428.93;  185.000;  143.182;14525.937; 0.00108; 0.00004
 429.53;  197.714;  147.486;14399.900; 0.00131; 0.00005
 430.12;  147.599;  111.081;14222.417; 0.00097; 0.00003
 430.71;  139.092;  102.079;14024.941; 0.00099; 0.00004
 431.30;  221.479;  177.075;14018.987; 0.00119; 0.00004
 431.89;  188.797;  139.481;13882.793; 0.00133; 0.00005
 432.48;  212.912;  167.685;13707.379; 0.00123; 0.00004
 433.08;  162.700;  125.282;13447.029; 0.00103; 0.00004
 433.67;  154.308;  134.684;13403.231; 0.00054; 0.00002
 434.26;  172.914;  132.886;13265.896; 0.00111; 0.00004
 434.85;  193.719;  150.987;13088.457; 0.00119; 0.00004
 435.44;  179.528;  135.390;12961.570; 0.00124; 0.00005
 436.03;  190.334;  156.292;12988.141; 0.00096; 0.00003
 436.62;  342.414;  249.186;12866.499; 0.00264; 0.00010
 437.21;  175.333;  142.792;12843.026; 0.00092; 0.00003
 437.81;  217.037;  161.293;12774.470; 0.00159; 0.00006
 438.40;  210.127;  162.390;12805.753; 0.00135; 0.00005
 438.99;  204.845;  144.495;12760.762; 0.00172; 0.00006
 439.58;  144.738;  124.993;12757.487; 0.00056; 0.00002
 440.17;  152.645;  132.595;12745.864; 0.00057; 0.00002
 440.76;  173.538;  158.293;12749.184; 0.00044; 0.00002
 441.35;  144.050;  113.797;12701.024; 0.00087; 0.00003
 441.94;  172.337;  149.493;12804.873; 0.00066; 0.00002
 442.53;  136.740;   95.694;12713.802; 0.00118; 0.00004
 443.12;  185.750;  145.797;12880.022; 0.00114; 0.00004
 443.72;  134.855;  105.499;12883.889; 0.00084; 0.00003
 444.31;  140.967;  119.602;12914.632; 0.00061; 0.00002
 444.90;  208.551;  177.597;13017.940; 0.00088; 0.00003
 445.49;  150.757;  114.599;12977.005; 0.00102; 0.00004
 446.08;  177.553;  132.398;13065.358; 0.00127; 0.00005
 446.67;  183.048;  141.996;13047.204; 0.00117; 0.00004
 447.26;  143.392;  108.810;13128.922; 0.00097; 0.00004
 447.85;  118.371;  103.903;13136.170; 0.00041; 0.00002
 448.44;  138.185;   96.507;13156.836; 0.00116; 0.00004
 449.03;  142.163;  105.201;13212.075; 0.00103; 0.00004
 449.62;  150.451;   98.197;13212.835; 0.00145; 0.00005
 450.21;  169.185;  142.608;13232.144; 0.00073; 0.00003
 450.80;  169.671;  132.803;13210.071; 0.00101; 0.00004
 451.39;  133.672;  102.204;13280.288; 0.00085; 0.00003
 451.98;  136.292;  116.710;13361.025; 0.00053; 0.00002
 452.57;  156.887;  123.308;13352.967; 0.00090; 0.00003
 453.17;  134.675;  103.805;13390.926; 0.00082; 0.00003
 453.76;  133.899;   98.212;13449.411; 0.00094; 0.00004
 454.35;  151.890;  119.209;13449.195; 0.00085; 0.00003
 454.94;  131.094;  113.110;13547.948; 0.00047; 0.00002
 455.53;  132.392;   98.810;13647.621; 0.00087; 0.00003
 456.12;  144.702;  110.013;13639.739; 0.00089; 0.00003
 456.71;  177.313;  143.616;13729.472; 0.00086; 0.00003
 457.30;  140.813;  109.316;13869.368; 0.00079; 0.00003
 457.89;  149.609;  122.815;13859.720; 0.00067; 0.00003
 458.48;  119.305;   86.714;13992.283; 0.00082; 0.00003
 459.07;  170.819;  133.618;14014.042; 0.00092; 0.00004
 459.66;  113.512;   94.616;14017.355; 0.00047; 0.00002
 460.25;  116.813;   91.816;14043.774; 0.00062; 0.00002
 460.84;  157.014;  115.516;14122.487; 0.00102; 0.00004
 461.43;  108.516;   92.917;14239.908; 0.00038; 0.00001
 462.02;  192.013;  135.216;14250.976; 0.00139; 0.00005
 462.61;  111.919;   90.918;14354.648; 0.00051; 0.00002
 463.20;  133.026;  108.920;14434.730; 0.00058; 0.00002
 463.79;  154.921;  127.419;14540.469; 0.00066; 0.00003
 464.38;  115.218;   82.818;14582.535; 0.00078; 0.00003
 464.97;  152.322;   96.319;14564.374; 0.00133; 0.00005
 465.56;  104.024;   86.920;14552.106; 0.00041; 0.00002
 466.15;  100.653;   89.628;14775.149; 0.00026; 0.00001
 466.74;  166.251;  115.128;14771.829; 0.00120; 0.00005
 467.32;  105.034;   63.923;14624.322; 0.00096; 0.00004
 467.91;  148.638;  112.124;14685.370; 0.00085; 0.00003
 468.50;  113.738;   76.624;14662.474; 0.00086; 0.00003
 469.09;  142.048;  101.027;14603.087; 0.00095; 0.00004
 469.68;  207.034;  168.922;14576.221; 0.00088; 0.00003
 470.27;  163.454;  125.529;14710.860; 0.00087; 0.00003
 470.86;  130.165;   94.832;14779.790; 0.00081; 0.00003
 471.45;  110.055;   98.329;14796.673; 0.00027; 0.00001
 472.04;  107.055;   75.729;14893.567; 0.00071; 0.00003
 472.63;  254.761;  199.831;14949.444; 0.00125; 0.00005
 473.22;  139.776;  104.735;15081.421; 0.00079; 0.00003
 473.81;  131.475;   83.335;15204.309; 0.00109; 0.00004
 474.40;  155.469;  139.133;15323.040; 0.00037; 0.00001
 474.99;  147.673;  108.034;15371.985; 0.00089; 0.00004
 475.58;  178.766;  144.432;15472.797; 0.00077; 0.00003
 476.17;  118.587;   77.639;15381.247; 0.00092; 0.00004
 476.76;  106.982;   72.837;15500.493; 0.00076; 0.00003
 477.34;  131.384;  108.738;15690.220; 0.00051; 0.00002
 477.93;   91.776;   82.435;15655.120; 0.00021; 0.00001
 478.52;  126.986;   77.138;15804.937; 0.00110; 0.00004
 479.11;   94.683;   67.038;15723.306; 0.00062; 0.00002
 479.70;  203.983;  150.437;15824.401; 0.00119; 0.00005
 480.29;   75.680;   35.837;15854.772; 0.00089; 0.00004
 480.88;  129.272;   83.734;15970.172; 0.00102; 0.00004
 481.47;  136.384;   93.738;16240.510; 0.00095; 0.00004
 482.06;   85.682;   82.137;16277.097; 0.00008; 0.00000
 482.64;  111.272;   76.234;16369.672; 0.00078; 0.00003
 483.23;   97.171;   66.934;16600.365; 0.00067; 0.00003
 483.82;   91.979;   65.236;16701.951; 0.00060; 0.00002
 484.41;  121.690;   83.640;16720.385; 0.00085; 0.00003
 485.00;   74.493;   68.640;16684.320; 0.00013; 0.00001
 485.59;  109.080;   84.837;16757.570; 0.00054; 0.00002
 486.18;  103.782;   67.837;16565.195; 0.00081; 0.00003
 486.77;  122.488;   99.239;16641.256; 0.00053; 0.00002
 487.35;  132.197;   97.942;16516.766; 0.00078; 0.00003
 487.94;  120.005;  103.544;16342.365; 0.00037; 0.00002
 488.53;  179.181;  120.337;16328.276; 0.00134; 0.00005
 489.12;  100.184;   78.338;16137.914; 0.00050; 0.00002
 489.71;  106.600;   73.043;16040.510; 0.00077; 0.00003
 490.30;  107.882;   75.137;15823.296; 0.00076; 0.00003
 490.89;   89.100;   77.243;15770.310; 0.00028; 0.00001
 491.47;  209.292;  141.540;15636.203; 0.00158; 0.00006
 492.06;  186.003;  121.544;15767.440; 0.00150; 0.00006
 492.65;   89.484;   73.638;15651.517; 0.00037; 0.00002
 493.24;  114.193;   85.340;15745.321; 0.00068; 0.00003
 493.83;  103.499;   73.942;15737.289; 0.00070; 0.00003
 494.42;   78.283;   53.138;15680.605; 0.00060; 0.00002
 495.00;  140.717;   93.948;15772.610; 0.00111; 0.00005
 495.59;  142.707;  101.745;15555.489; 0.00099; 0.00004
 496.18;  103.694;   75.841;15587.835; 0.00067; 0.00003
 496.77;   77.211;   55.746;15499.329; 0.00052; 0.00002
 497.36;  148.901;  108.643;15408.615; 0.00099; 0.00004
 497.94;  138.397;  116.542;15405.174; 0.00054; 0.00002
 498.53;   96.220;   70.649;15336.545; 0.00063; 0.00003
 499.12;   78.628;   49.051;15247.135; 0.00074; 0.00003
 499.71;  118.898;   84.842;15223.276; 0.00086; 0.00004
 500.30;  107.606;   74.944;15162.171; 0.00082; 0.00003
 500.88;  130.130;   97.752;15165.755; 0.00082; 0.00003
 501.47;  109.822;   77.949;15064.069; 0.00082; 0.00003
 502.06;  115.724;   85.650;15084.289; 0.00077; 0.00003
 502.65;  101.720;   71.749;15053.546; 0.00078; 0.00003
 503.23;   96.211;   67.646;14986.635; 0.00074; 0.00003
 503.82;  106.222;   67.349;15037.966; 0.00101; 0.00004
 504.41;   85.234;   53.153;14906.905; 0.00084; 0.00004
 505.00;  209.024;  155.250;14855.493; 0.00142; 0.00006
 505.58;  137.918;   96.648;14830.521; 0.00110; 0.00005
 506.17;  165.432;  114.252;14742.188; 0.00137; 0.00006
 506.76;  119.016;   81.647;14670.589; 0.00100; 0.00004
 507.35;  155.732;   99.352;14583.180; 0.00152; 0.00006
 507.93;  112.441;   76.655;14526.590; 0.00097; 0.00004
 508.52;   92.938;   63.054;14549.052; 0.00081; 0.00003
 509.11;  110.525;   70.950;14402.097; 0.00108; 0.00005
 509.70;  113.835;   60.253;14285.923; 0.00147; 0.00006
 510.28;  138.135;   96.753;14326.917; 0.00114; 0.00005
 510.87;  121.043;   68.556;14263.308; 0.00146; 0.00006
 511.46;  116.941;   63.355;14128.893; 0.00150; 0.00006
 512.05;  123.227;   53.451;14064.229; 0.00197; 0.00008
 512.63;  149.057;   85.560;14044.876; 0.00179; 0.00008
 513.22;  143.543;   60.356;13960.816; 0.00238; 0.00010
 513.81;  143.068;   74.763;13930.912; 0.00196; 0.00008
 514.40;  132.859;   56.561;13850.705; 0.00220; 0.00009
 514.98;  173.660;   91.761;13811.717; 0.00237; 0.00010
 515.57;  181.743;   98.256;13759.513; 0.00243; 0.00010
 516.16;  327.350;  194.558;13665.995; 0.00392; 0.00017
 516.74;  152.650;   61.158;13650.798; 0.00271; 0.00012
 517.33;  229.040;   93.655;13631.582; 0.00403; 0.00017
 517.92;  213.553;   77.059;13572.029; 0.00407; 0.00018
 518.50;  181.866;   50.163;13526.084; 0.00396; 0.00017
 519.09;  235.751;   76.358;13522.206; 0.00479; 0.00021
 519.68;  226.156;   63.860;13582.164; 0.00490; 0.00021
 520.26;  247.357;   61.960;13514.477; 0.00562; 0.00024
 520.85;  250.155;   67.859;13509.653; 0.00555; 0.00024
 521.44;  288.851;   83.258;13416.109; 0.00631; 0.00027
 522.02;  265.147;   48.057;13449.657; 0.00667; 0.00029
 522.61;  307.769;   54.064;13481.719; 0.00779; 0.00034
 523.20;  361.555;  102.759;13529.651; 0.00797; 0.00035
 523.78;  311.057;   36.860;13421.774; 0.00847; 0.00037
 524.37;  382.058;   81.160;13489.089; 0.00932; 0.00041
 524.96;  396.865;   53.963;13546.479; 0.01064; 0.00047
 525.54;  458.364;   79.662;13559.268; 0.01177; 0.00052
 526.13;  494.562;   86.061;13613.739; 0.01272; 0.00056
 526.72;  460.958;   36.160;13636.987; 0.01326; 0.00058
 527.30;  541.178;   79.866;13736.029; 0.01439; 0.00063
 527.89;  601.874;   87.665;13772.479; 0.01607; 0.00071
 528.48;  606.666;   67.963;13717.585; 0.01687; 0.00075
 529.06;  679.473;   96.665;13839.567; 0.01825; 0.00081
 529.65;  729.981;   87.867;13879.060; 0.02011; 0.00089
 530.23;  770.692;   90.871;13985.299; 0.02131; 0.00094
 530.82;  825.167;   92.763;14006.492; 0.02302; 0.00102
 531.41;  867.971;   82.864;13952.847; 0.02480; 0.00110
 531.99;  988.674;  128.365;14189.484; 0.02707; 0.00120
 532.58;  958.583;   53.068;14202.188; 0.02860; 0.00127
 533.17; 1443.685;  372.868;14394.606; 0.03361; 0.00150
 533.75; 1130.175;   82.365;14400.594; 0.03290; 0.00147
 534.34; 1152.676;   46.266;14487.405; 0.03480; 0.00155
 534.92; 1312.577;  109.366;14675.321; 0.03768; 0.00168
 535.51; 1300.979;   65.267;14802.540; 0.03858; 0.00173
 536.10; 1377.274;   73.565;14892.283; 0.04084; 0.00183
 536.68; 1407.070;   46.464;14930.339; 0.04245; 0.00190
 537.27; 1537.087;   71.169;15110.231; 0.04571; 0.00205
 537.85; 1630.077;   79.266;15302.512; 0.04795; 0.00216
 538.44; 1680.690;   64.070;15447.575; 0.04976; 0.00224
 539.02; 1779.878;   44.966;15526.634; 0.05347; 0.00241
 539.61; 1840.281;   51.267;15661.866; 0.05471; 0.00247
 540.20; 1997.789;   99.270;15878.364; 0.05783; 0.00261
 540.78; 2083.884;   90.468;16158.702; 0.06024; 0.00272
 541.37; 2116.099;   64.073;16286.580; 0.06166; 0.00279
 541.95; 2237.695;  101.471;16484.824; 0.06392; 0.00290
 542.54; 2318.697;   80.672;16728.355; 0.06629; 0.00301
 543.12; 2431.384;  103.568;16867.094; 0.06845; 0.00311
 543.71; 2517.287;   90.769;17189.740; 0.07072; 0.00321
 544.29; 2554.782;   73.468;17314.779; 0.07178; 0.00327
 544.88; 2675.980;   92.767;17689.258; 0.07392; 0.00337
 545.47; 2642.979;   40.767;17727.537; 0.07427; 0.00339
 546.05; 2787.894;   89.871;17966.822; 0.07638; 0.00349
 546.64; 3048.685;  236.468;18134.611; 0.07934; 0.00362
 547.22; 2877.099;   67.473;18293.980; 0.07861; 0.00360
 547.81; 3008.102;  109.374;18506.514; 0.08036; 0.00368
 548.39; 3025.594;   68.371;18651.521; 0.08192; 0.00375
 548.98; 3098.791;   82.770;18741.889; 0.08359; 0.00384
 549.56; 3135.495;   80.571;18939.928; 0.08395; 0.00386
 550.15; 3089.291;   49.370;19057.387; 0.08353; 0.00384
 550.73; 3186.211;   61.976;19266.816; 0.08563; 0.00394
 551.32; 3182.408;   69.075;19436.779; 0.08502; 0.00392
 551.90; 3206.392;   60.871;19450.693; 0.08597; 0.00397
 552.49; 3275.206;   87.875;19831.463; 0.08659; 0.00400
 553.07; 3322.296;  100.672;19986.041; 0.08756; 0.00405
 553.66; 3296.998;   84.973;20108.471; 0.08692; 0.00402
 554.24; 3414.011;  179.276;20174.721; 0.08803; 0.00408
 554.83; 3298.702;   81.874;20293.715; 0.08705; 0.00404
 555.41; 3306.603;   74.874;20431.230; 0.08736; 0.00406
 556.00; 3291.703;   89.774;20531.824; 0.08623; 0.00401
 556.58; 3280.617;   77.378;20630.889; 0.08639; 0.00402
 557.17; 3240.914;   79.077;20893.254; 0.08499; 0.00396
 557.75; 3235.024;   62.280;21027.377; 0.08530; 0.00398
 558.33; 3188.111;   57.876;21327.117; 0.08343; 0.00389
 558.92; 3217.323;   69.480;21511.662; 0.08372; 0.00391
 559.50; 3147.513;   57.177;21679.539; 0.08191; 0.00383
 560.09; 3135.514;   52.377;21966.859; 0.08143; 0.00381
 560.67; 3181.415;   92.177;22094.262; 0.08155; 0.00382
 561.26; 3396.911;  273.977;22325.426; 0.08209; 0.00385
 561.84; 3115.916;   96.578;22537.285; 0.07931; 0.00372
 562.43; 3055.627;   69.881;22665.506; 0.07806; 0.00367
 563.01; 2992.310;   68.476;22804.908; 0.07667; 0.00361
 563.60; 2931.213;   63.477;22987.145; 0.07500; 0.00353
 564.18; 2834.312;   18.377;22954.326; 0.07409; 0.00349
 564.76; 2886.716;   96.978;23225.584; 0.07333; 0.00346
 565.35; 2749.221;   19.179;23472.633; 0.07143; 0.00338
 565.93; 2782.121;   84.879;23797.533; 0.07053; 0.00334
 566.52; 2759.616;   57.978;24374.377; 0.07028; 0.00333
 567.10; 2673.426;   42.481;24673.195; 0.06870; 0.00326
 567.68; 2630.010;   45.276;25084.010; 0.06728; 0.00319
 568.27; 2591.819;   22.979;25516.410; 0.06698; 0.00318
 568.85; 2651.921;  107.380;26141.744; 0.06599; 0.00314
 569.44; 2521.326;   44.781;26641.191; 0.06436; 0.00306
 570.02; 2451.918;    5.678;27187.600; 0.06334; 0.00302
 570.60; 2482.925;   76.581;27742.281; 0.06212; 0.00296
 571.19; 2396.719;   64.579;28157.010; 0.05999; 0.00286
 571.77; 2407.613;   90.277;28428.947; 0.05973; 0.00285
 572.36; 2269.512;   14.977;28979.928; 0.05791; 0.00277
 572.94; 2303.822;   57.780;29391.047; 0.05759; 0.00276
 573.52; 2242.724;   21.580;29856.078; 0.05686; 0.00273
 574.11; 2214.826;   31.081;30210.297; 0.05569; 0.00267
 574.69; 2177.215;   39.278;30610.469; 0.05454; 0.00262
 575.27; 2151.618;   33.378;31068.201; 0.05375; 0.00258
 575.86; 2078.822;   44.780;31324.652; 0.05170; 0.00249
 576.44; 2069.325;   41.781;31821.682; 0.05136; 0.00247
 577.03; 2019.707;   38.175;32242.576; 0.05016; 0.00242
 577.61; 1956.210;   28.576;32332.604; 0.04889; 0.00236
 578.19; 1940.221;   27.179;32663.738; 0.04842; 0.00234
 578.78; 1904.420;   28.379;33150.430; 0.04744; 0.00229
 579.36; 1863.930;   21.282;33498.246; 0.04646; 0.00225
 579.94; 1889.408;   54.176;33838.488; 0.04617; 0.00224
 580.53; 1829.926;   50.281;33925.402; 0.04469; 0.00217
 581.11; 1831.021;   60.479;33902.137; 0.04428; 0.00215
 581.69; 1833.719;   82.579;33934.109; 0.04370; 0.00212
 582.28; 1741.119;   40.579;34024.719; 0.04248; 0.00207
 582.86; 1693.724;   29.580;34404.578; 0.04149; 0.00202
 583.44; 1719.022;   65.680;34290.453; 0.04135; 0.00202
 584.02; 1646.816;   43.078;34502.574; 0.03990; 0.00195
 584.61; 1656.114;   67.677;34367.449; 0.03952; 0.00193
 585.19; 1663.430;   72.082;34147.840; 0.03971; 0.00194
 585.77; 1607.322;   69.280;34324.949; 0.03839; 0.00188
 586.36; 1555.107;   34.775;34220.977; 0.03801; 0.00186
 586.94; 1541.930;   45.182;34264.648; 0.03754; 0.00184
 587.52; 1488.212;   16.577;34169.328; 0.03686; 0.00181
 588.11; 1514.524;   53.080;34027.176; 0.03685; 0.00181
 588.69; 1530.611;   76.376;34133.223; 0.03671; 0.00181
 589.27; 1432.126;   27.181;34017.098; 0.03561; 0.00175
 589.85; 1432.722;   34.080;34200.453; 0.03540; 0.00175
 590.44; 1406.826;   21.681;34417.695; 0.03506; 0.00173
 591.02; 1389.123;   37.680;34525.262; 0.03441; 0.00170
 591.60; 1360.711;   32.876;34488.723; 0.03384; 0.00167
 592.18; 1355.523;   49.980;34247.359; 0.03357; 0.00166
 592.77; 1337.005;   48.875;34253.250; 0.03323; 0.00165
 593.35; 1278.930;   16.382;34408.547; 0.03265; 0.00162
 593.93; 1238.129;    4.282;34700.426; 0.03186; 0.00158
 594.51; 1217.319;   28.279;34792.813; 0.03095; 0.00154
 595.10; 1180.219;  -19.621;35006.313; 0.03128; 0.00156
 595.68; 1194.527;   37.981;35184.211; 0.03028; 0.00151
 596.26; 1126.720;    5.179;35202.832; 0.02944; 0.00147
 596.84; 1129.714;  -11.623;35400.758; 0.03008; 0.00150
 597.43; 1138.814;   44.577;35554.852; 0.02895; 0.00145
 598.01; 1105.411;    5.076;35705.520; 0.02921; 0.00146
 598.59; 1099.327;    6.281;35872.508; 0.02904; 0.00145
 599.17; 1062.811;   16.776;35825.816; 0.02795; 0.00140
 599.76; 1031.121;   -1.421;35690.133; 0.02771; 0.00139
 600.34; 1011.304;   -2.426;35831.438; 0.02731; 0.00137
 600.92; 1042.214;   36.577;35801.262; 0.02720; 0.00137
 601.50;  970.903;   -4.726;35980.527; 0.02642; 0.00133
 602.08; 1045.509;   74.876;35747.195; 0.02647; 0.00133
 602.67;  995.806;   59.875;35853.664; 0.02561; 0.00129
 603.25;  902.424;    6.580;35959.473; 0.02454; 0.00124
 603.83;  900.024;   11.180;35792.375; 0.02449; 0.00124
 604.41;  864.618;   -2.522;35914.496; 0.02397; 0.00121
 604.99;  910.312;   47.377;36049.531; 0.02394; 0.00121
 605.58;  850.702;    9.674;35814.113; 0.02362; 0.00120
 606.16;  844.212;   14.777;35771.234; 0.02339; 0.00119
 606.74;  835.407;   29.775;35656.973; 0.02285; 0.00116
 607.32;  791.726;   15.481;35315.395; 0.02209; 0.00112
 607.90;  877.313;   76.477;35155.938; 0.02291; 0.00116
 608.48;  767.822;   21.180;34978.152; 0.02148; 0.00109
 609.07;  777.829;   53.182;34852.227; 0.02097; 0.00107
 609.65;  852.909;  109.676;34810.895; 0.02153; 0.00110
 610.23;  722.711;   24.477;34730.625; 0.02036; 0.00104
 610.81;  671.317;   -8.022;34496.090; 0.01989; 0.00102
 611.39;  643.211;  -18.224;34449.219; 0.01945; 0.00099
 611.97;  687.408;   23.876;34513.590; 0.01962; 0.00100
 612.55;  671.925;   29.181;34686.289; 0.01902; 0.00097
 613.14;  640.216;   -9.422;34700.883; 0.01932; 0.00099
 613.72;  586.604;  -38.326;34388.938; 0.01875; 0.00096
 614.30;  605.210;   -8.624;34659.613; 0.01839; 0.00094
 614.88;  592.611;    2.576;34379.121; 0.01780; 0.00091
 615.46;  553.814;    2.977;34221.359; 0.01672; 0.00086
 616.04;  585.700;   25.773;33908.996; 0.01717; 0.00088
 616.62;  598.304;   33.174;33753.336; 0.01733; 0.00089
 617.20;  497.406;  -34.725;33597.859; 0.01640; 0.00085
 617.79;  571.907;   50.475;33727.773; 0.01605; 0.00083
 618.37;  496.123;  -18.220;33152.965; 0.01599; 0.00083
 618.95;  521.210;   19.576;33161.605; 0.01569; 0.00081
 619.53;  442.510;  -23.724;32939.707; 0.01466; 0.00076
 620.11;  474.012;   -4.123;33004.430; 0.01510; 0.00078
 620.69;  443.506;   -2.425;32959.859; 0.01416; 0.00073
 621.27;  449.217;   33.878;32839.289; 0.01329; 0.00069
 621.85;  446.710;   15.776;32868.613; 0.01378; 0.00072
 622.43;  403.006;  -10.725;32800.363; 0.01337; 0.00070
 623.01;  361.112;  -52.623;32647.637; 0.01345; 0.00070
 623.59;  366.697;  -42.528;32613.248; 0.01336; 0.00070
 624.17;  401.920;    6.579;32739.422; 0.01295; 0.00068
 624.76;  364.302;  -11.726;32559.518; 0.01238; 0.00065
 625.34;  367.416;  -10.722;32568.980; 0.01255; 0.00066
 625.92;  388.017;   -0.122;32468.295; 0.01291; 0.00068
 626.50;  315.415;  -31.322;32290.064; 0.01161; 0.00061
 627.08;  365.122;   -6.320;32135.045; 0.01250; 0.00065
 627.66;  343.018;    1.679;32275.604; 0.01150; 0.00060
 628.24;  318.200;  -12.027;31949.385; 0.01122; 0.00059
 628.82;  319.502;  -12.326;31947.217; 0.01129; 0.00059
 629.40;  290.311;  -19.124;31771.922; 0.01058; 0.00056
 629.98;  266.404;  -37.626;31671.943; 0.01043; 0.00055
 630.56;  282.597;  -18.428;31838.951; 0.01035; 0.00055
 631.14;  250.612;  -47.123;31703.836; 0.01028; 0.00054
 631.72;  229.791;  -36.630;31831.287; 0.00921; 0.00049
 632.30;  235.803;  -44.926;31650.430; 0.00979; 0.00052
 632.88;  217.501;  -56.627;31645.305; 0.00960; 0.00051
 633.46;  204.313;  -48.723;31591.738; 0.00890; 0.00047
 634.04;  252.899;  -20.727;31630.781; 0.00964; 0.00051
 634.62;  274.309;   13.576;31356.793; 0.00929; 0.00049
 635.20;  253.505;   -5.226;31504.246; 0.00921; 0.00049
 635.78;  189.306;  -48.825;31576.955; 0.00854; 0.00045
 636.36;  175.005;  -48.025;31361.947; 0.00806; 0.00043
 636.94;  273.492;   18.171;31584.695; 0.00923; 0.00049
 637.52;  201.197;  -31.428;31522.854; 0.00845; 0.00045
 638.10;  158.697;  -67.128;31509.953; 0.00823; 0.00044
 638.68;  194.494;  -30.029;31569.314; 0.00820; 0.00044
 639.26;  209.314;  -15.123;31614.053; 0.00824; 0.00044
 639.84;  264.709;   30.876;31718.201; 0.00860; 0.00046
 640.42;  154.006;  -48.125;31593.980; 0.00746; 0.00040
 641.00;  108.207;  -72.625;31727.652; 0.00667; 0.00036
 641.58;  156.807;  -32.725;31806.523; 0.00702; 0.00038
 642.16;  144.508;  -36.525;31878.197; 0.00670; 0.00036
 642.74;  164.808;  -15.124;32005.869; 0.00668; 0.00036
 643.32;  155.309;  -16.024;32003.541; 0.00638; 0.00034
 643.90;  175.109;  -24.724;31874.514; 0.00748; 0.00040
 644.47;  129.210;  -33.924;31967.086; 0.00614; 0.00033
 645.05;  121.810;  -43.024;32259.957; 0.00620; 0.00033
 645.63;  125.911;  -29.624;32513.930; 0.00585; 0.00032
 646.21;  143.711;  -40.423;32526.102; 0.00696; 0.00038
 646.79;  150.312;  -18.323;32665.674; 0.00638; 0.00035
 647.37;  119.413;  -48.523;32710.047; 0.00639; 0.00035
 647.95;  174.613;   11.777;32776.320; 0.00621; 0.00034
 648.53;  155.214;  -17.623;32969.391; 0.00659; 0.00036
 649.11;   95.914;  -59.123;33030.465; 0.00594; 0.00032
 649.69;   81.615;  -62.923;33200.035; 0.00555; 0.00030
 650.27;  106.315;  -37.322;33310.707; 0.00553; 0.00030
 650.85;   97.116;  -50.422;33928.180; 0.00568; 0.00031
 651.42;   88.416;  -54.322;34418.152; 0.00552; 0.00030
 652.00;   64.517;  -69.822;34969.625; 0.00519; 0.00028
 652.58;   81.417;  -42.522;35191.797; 0.00480; 0.00026
 653.16;   92.718;  -49.022;36135.668; 0.00550; 0.00030
 653.74;  123.118;  -19.021;36648.441; 0.00552; 0.00030
 654.32;  127.119;    0.879;37165.813; 0.00491; 0.00027
 654.90;   95.319;  -21.321;37183.387; 0.00454; 0.00025
 655.48;   76.220;  -53.621;36928.457; 0.00507; 0.00028
 656.05;   43.120;  -79.821;36971.133; 0.00481; 0.00026
 656.63;   72.821;  -44.121;37052.504; 0.00458; 0.00025
 657.21;   84.021;  -39.120;36949.676; 0.00483; 0.00027
 657.79;  123.922;   20.480;36851.949; 0.00405; 0.00022
 658.37;  251.022;   92.380;36239.219; 0.00625; 0.00034
 658.95;   68.523;  -40.820;35664.891; 0.00432; 0.00024
 659.53;   73.123;  -26.220;35354.664; 0.00391; 0.00022
 660.10;   51.724;  -46.620;34605.535; 0.00390; 0.00022
 660.68;   52.925;  -48.119;34863.910; 0.00400; 0.00022
 661.26;   75.525;  -22.219;34861.480; 0.00388; 0.00021
 661.84;   83.926;   -6.319;34877.855; 0.00360; 0.00020
 662.42;   66.226;  -33.619;34987.824; 0.00398; 0.00022
 663.00;  123.527;    2.181;35223.297; 0.00484; 0.00027
 663.57;   62.827;  -25.819;35418.969; 0.00354; 0.00020
 664.15;   27.428;  -59.519;35596.441; 0.00346; 0.00019
 664.73;   67.028;  -22.218;35720.516; 0.00357; 0.00020
 665.31;   46.129;  -41.418;35988.887; 0.00350; 0.00019
 665.89;   55.529;  -33.618;36325.660; 0.00354; 0.00020
 666.46;   30.230;  -65.918;36449.031; 0.00382; 0.00021
 667.04;   18.330;  -67.318;36462.703; 0.00341; 0.00019
 667.62;   24.831;  -53.018;36704.078; 0.00310; 0.00017
 668.20;   68.731;  -13.117;36966.848; 0.00326; 0.00018
 668.78;   43.432;  -47.417;37359.223; 0.00360; 0.00020
 669.35;  262.132;  130.883;37649.895; 0.00520; 0.00029
 669.93;   45.833;  -43.617;37991.066; 0.00352; 0.00020
 670.51;   11.433;  -76.017;38145.738; 0.00344; 0.00019
 671.09;   29.634;  -49.617;38209.109; 0.00311; 0.00017
 671.66;   72.534;  -13.216;38580.684; 0.00336; 0.00019
 672.24;   11.835;  -62.016;38670.656; 0.00289; 0.00016
 672.82;   41.936;  -34.916;39357.125; 0.00299; 0.00017
 673.40;  -11.364;  -60.016;39317.500; 0.00190; 0.00011
 673.97;   39.237;  -39.716;39754.371; 0.00308; 0.00017
 674.55;   -1.963;  -69.416;40012.742; 0.00264; 0.00015
 675.13;   49.138;  -27.216;40245.215; 0.00298; 0.00017
 675.71;  -17.762;  -81.115;40351.789; 0.00248; 0.00014
 676.28;   41.339;  -32.215;40497.563; 0.00289; 0.00016
 676.86;   37.839;  -35.215;40881.934; 0.00285; 0.00016
 677.44;   30.540;  -39.115;41243.406; 0.00270; 0.00015
 678.01;   -2.660;  -56.715;41566.777; 0.00208; 0.00012
 678.59;    8.941;  -41.615;41856.949; 0.00194; 0.00011
 679.17;   56.641;  -15.414;42126.723; 0.00276; 0.00016
 679.75;    0.042;  -61.014;42527.496; 0.00232; 0.00013
 680.32;    6.742;  -63.114;42799.965; 0.00265; 0.00015
 680.90;   -1.457;  -73.114;42983.039; 0.00272; 0.00015
 681.48;   25.543;  -35.014;43704.012; 0.00227; 0.00013
 682.05;   53.344;  -15.214;43718.582; 0.00258; 0.00015
 682.63;  -10.656;  -83.013;44042.055; 0.00272; 0.00016
 683.21;  -15.755;  -66.313;44531.629; 0.00189; 0.00011
 683.78;   16.945;  -48.413;44788.398; 0.00244; 0.00014
 684.36;   -3.854;  -67.313;44854.273; 0.00237; 0.00014
 684.94;  -23.554;  -70.513;45147.445; 0.00176; 0.00010
 685.52;   19.947;  -45.613;45579.016; 0.00245; 0.00014
 686.09;  -24.052;  -63.112;45676.688; 0.00146; 0.00008
 686.67;  -14.752;  -72.812;45566.063; 0.00218; 0.00013
 687.25;   30.349;  -34.212;45785.234; 0.00243; 0.00014
 687.82;  -11.451;  -59.912;45951.406; 0.00183; 0.00010
 688.40;    6.250;  -33.312;46290.379; 0.00149; 0.00009
 688.97;   -4.850;  -63.312;46223.852; 0.00220; 0.00013
 689.55;  -24.449;  -73.912;46394.621; 0.00186; 0.00011
 690.13;   12.151;  -32.711;46349.594; 0.00169; 0.00010
 690.70;   68.452;    3.589;46622.266; 0.00245; 0.00014
 691.28;   20.952;  -30.511;46828.539; 0.00194; 0.00011
 691.86;   16.353;  -26.811;47108.512; 0.00163; 0.00009
 692.43;    2.153;  -49.811;47368.785; 0.00196; 0.00011
 693.01;   -2.746;  -48.211;47615.758; 0.00172; 0.00010
 693.59;   58.354;    4.790;47501.730; 0.00203; 0.00012
 694.16;  -26.445;  -71.310;47670.801; 0.00170; 0.00010
 694.74;    5.655;  -35.810;48102.574; 0.00157; 0.00009
 695.31;  -26.744;  -67.010;48244.445; 0.00153; 0.00009
 695.89;  -27.444;  -65.610;48315.719; 0.00145; 0.00008
 696.47;  -19.943;  -65.310;48414.789; 0.00173; 0.00010
 697.04;   91.657;   27.591;48520.863; 0.00244; 0.00014
 697.62;   23.658;  -11.709;48766.734; 0.00134; 0.00008
 698.19;   12.858;  -43.109;48808.207; 0.00213; 0.00012
 698.77;   52.659;  -14.509;49016.680; 0.00255; 0.00015
 699.34;    9.660;  -23.609;49065.551; 0.00127; 0.00007
 699.92;    8.860;  -31.909;49022.223; 0.00155; 0.00009
 700.50;  -21.139;  -62.509;49321.195; 0.00158; 0.00009
 701.07;  -11.739;  -41.808;49435.668; 0.00115; 0.00007
 701.65;    1.462;  -40.408;49736.641; 0.00159; 0.00009
 702.22;   18.862;  -27.708;49895.914; 0.00177; 0.00010
 702.80;   11.563;  -12.708;49964.785; 0.00093; 0.00005
 703.37;   31.963;  -17.408;50193.457; 0.00189; 0.00011
 703.95;   25.464;  -25.908;50479.629; 0.00197; 0.00012
 704.52;   -2.936;  -36.807;50941.102; 0.00129; 0.00008
 705.10;  -34.435;  -71.907;51257.973; 0.00143; 0.00008
 705.68;  -39.635;  -71.807;51457.348; 0.00123; 0.00007
 706.25;  -18.534;  -51.107;51790.617; 0.00124; 0.00007
 706.83;   -2.534;  -19.407;51709.492; 0.00065; 0.00004
 707.40;   33.467;   -5.507;51802.363; 0.00149; 0.00009
 707.98;    6.367;  -32.306;52174.938; 0.00148; 0.00009
 708.55;  -17.132;  -41.406;52212.406; 0.00093; 0.00006
 709.13;  -13.332;  -39.006;52351.980; 0.00098; 0.00006
 709.70;   47.069;  -10.106;52634.453; 0.00219; 0.00013
 710.28;    7.569;  -34.606;52829.727; 0.00161; 0.00010
 710.85;  -13.330;  -46.506;52866.598; 0.00127; 0.00008
 711.43;  -17.529;  -57.805;53221.270; 0.00154; 0.00009
 712.00;   52.471;    4.195;53035.141; 0.00186; 0.00011
 712.58;    5.272;  -32.305;53267.813; 0.00144; 0.00009
 713.15;   12.272;  -18.105;53512.387; 0.00117; 0.00007
 713.73;  157.873;  106.895;53688.059; 0.00196; 0.00012
 714.30;   39.473;   -7.605;53973.031; 0.00181; 0.00011
 714.88;  -27.726;  -56.705;53874.602; 0.00111; 0.00007
 715.45;   25.174;  -12.804;54110.676; 0.00147; 0.00009
 716.03;  -12.025;  -38.504;54504.449; 0.00102; 0.00006
 716.60;  -11.525;  -36.304;54248.020; 0.00096; 0.00006
 717.17;  -23.824;  -50.204;54334.492; 0.00103; 0.00006
 717.75;   22.476;  -28.204;54719.965; 0.00196; 0.00012
 718.32;   25.377;   -5.404;54422.438; 0.00120; 0.00007
 718.90;   -8.323;  -44.003;54219.508; 0.00140; 0.00008
 719.47;   18.778;  -34.803;54395.980; 0.00210; 0.00013
 720.05;   11.378;  -19.203;54543.352; 0.00120; 0.00007
 720.62;   -6.021;  -32.503;54725.727; 0.00104; 0.00006
 721.20;   41.679;    1.497;54603.398; 0.00159; 0.00010
 721.77;   32.880;  -13.003;54810.770; 0.00182; 0.00011
 722.34;   18.180;  -25.502;54964.742; 0.00173; 0.00010
 722.92;  -23.419;  -69.302;54886.816; 0.00183; 0.00011
 723.49;  -67.719;  -86.002;55052.387; 0.00073; 0.00004
 724.07;    4.682;  -14.402;55315.660; 0.00076; 0.00005
 724.64;   -7.017;  -38.502;55283.133; 0.00126; 0.00008
 725.21;  -15.117;  -36.502;55661.605; 0.00085; 0.00005
 725.79;   20.684;  -14.802;55881.777; 0.00141; 0.00009
 726.36;   -4.516;  -24.801;56024.648; 0.00081; 0.00005
 726.94;   -2.515;  -42.201;56315.820; 0.00159; 0.00010
 727.51;  -20.715;  -31.701;56807.895; 0.00044; 0.00003
 728.08;  -16.614;  -40.401;56846.766; 0.00095; 0.00006
 728.66;   -4.414;  -36.201;57255.438; 0.00127; 0.00008
 729.23;  -22.513;  -46.301;57826.512; 0.00095; 0.00006
 729.80;  -53.513;  -65.500;57723.582; 0.00048; 0.00003
 730.38;   12.388;  -24.600;58136.555; 0.00148; 0.00009
 730.95;  -13.812;  -48.200;58380.727; 0.00138; 0.00008
 731.53;   15.789;  -19.900;58386.398; 0.00143; 0.00009
 732.10;   13.789;  -26.100;58444.473; 0.00161; 0.00010
 732.67;  -21.710;  -49.900;58673.445; 0.00114; 0.00007
 733.25;   38.190;   13.001;58645.816; 0.00102; 0.00006
 733.82;  -31.409;  -41.199;58935.488; 0.00039; 0.00002
 734.39;    6.391;  -26.699;59133.359; 0.00134; 0.00008
 734.97;  -26.908;  -48.699;59207.234; 0.00088; 0.00005
 735.54;   57.392;   24.901;59275.906; 0.00132; 0.00008
 736.11;   -0.507;  -27.699;59227.777; 0.00111; 0.00007
 736.69;   48.794;   21.402;59661.551; 0.00111; 0.00007
 737.26;    6.694;  -17.298;59761.621; 0.00097; 0.00006
 737.83;  -23.705;  -53.198;59570.594; 0.00120; 0.00007
 738.41;  -36.505;  -65.298;59493.766; 0.00117; 0.00007
 738.98;  -10.604;  -44.998;59380.039; 0.00141; 0.00009
 739.55;   32.096;    2.402;59269.609; 0.00121; 0.00008
 740.12;  -16.303;  -43.198;59404.781; 0.00110; 0.00007
 740.70;  -43.803;  -58.897;59095.055; 0.00062; 0.00004
 741.27;  -43.802;  -58.297;59266.027; 0.00060; 0.00004
 741.84;  -63.102;  -78.697;58997.301; 0.00064; 0.00004
 742.42;  -29.201;  -47.997;58935.172; 0.00078; 0.00005
 742.99;   37.499;    2.903;59108.945; 0.00143; 0.00009
 743.56;  -20.600;  -38.597;58782.516; 0.00075; 0.00005
 744.13;  -49.800;  -60.096;58925.988; 0.00043; 0.00003
 744.71;  165.301;   98.204;59260.961; 0.00280; 0.00017
 745.28;    5.001;  -24.796;59793.035; 0.00124; 0.00008
 745.85;  -26.698;  -48.396;60592.605; 0.00091; 0.00006
 746.42;  -10.698;  -34.996;60780.477; 0.00102; 0.00006
 747.00;   -2.197;  -27.496;60843.250; 0.00107; 0.00007
 747.57;  139.403;   94.605;61990.422; 0.00189; 0.00012
 748.14;  -23.296;  -42.195;62691.895; 0.00080; 0.00005
 748.71;    5.604;  -16.295;62852.969; 0.00093; 0.00006
 749.29;    6.605;  -22.195;63047.340; 0.00123; 0.00008
 749.86;   10.606;  -34.295;62964.410; 0.00192; 0.00012
 750.43;  -24.894;  -37.195;62938.785; 0.00053; 0.00003
 751.00;  -42.793;  -60.395;63066.457; 0.00076; 0.00005
 751.58;  -40.193;  -53.194;62976.328; 0.00056; 0.00004
 752.15;  184.908;  103.706;62703.602; 0.00353; 0.00022
 752.72;  -54.292;  -67.394;62198.273; 0.00057; 0.00004
 753.29;  116.309;   53.406;61943.344; 0.00275; 0.00017
 753.86;  -41.991;  -64.594;61476.219; 0.00099; 0.00006
 754.44;   15.310;  -19.394;60961.590; 0.00153; 0.00010
 755.01;  -25.490;  -43.793;61186.664; 0.00081; 0.00005
 755.58;  -21.389;  -41.493;61188.133; 0.00089; 0.00006
 756.15;   -3.589;  -33.793;61287.309; 0.00135; 0.00009
 756.72;   29.912;   -8.993;61241.980; 0.00174; 0.00011
 757.29;   -3.088;  -25.193;61520.852; 0.00099; 0.00006
 757.87;  -40.287;  -66.893;61177.625; 0.00120; 0.00008
 758.44;  -20.187;  -49.592;61340.598; 0.00133; 0.00008
 759.01;    0.514;  -33.492;61652.770; 0.00154; 0.00010
 759.58;  -51.886;  -61.392;61150.539; 0.00043; 0.00003
 760.15;    9.215;  -19.092;61244.414; 0.00130; 0.00008
 760.72;  -35.885;  -66.892;61275.887; 0.00143; 0.00009
 761.30;  -48.484;  -57.292;61491.059; 0.00041; 0.00003
 761.87;   -3.283;  -23.091;61700.730; 0.00092; 0.00006
 762.44;  -45.183;  -58.191;61389.602; 0.00061; 0.00004
 763.01;    4.818;  -12.991;61658.973; 0.00083; 0.00005
 763.58;    7.718;  -14.891;61295.145; 0.00106; 0.00007
 764.15;    8.719;  -24.191;61126.418; 0.00156; 0.00010
 764.72;   -2.881;  -36.591;61225.391; 0.00160; 0.00010
 765.30;  -35.180;  -56.491;60961.664; 0.00102; 0.00006
 765.87;  -22.180;  -36.690;60665.336; 0.00070; 0.00004
 766.44;   39.221;   14.410;60815.809; 0.00119; 0.00008
 767.01;   35.921;    3.110;60390.180; 0.00159; 0.00010
 767.58;  -65.678;  -90.290;60249.254; 0.00120; 0.00008
 768.15;   16.322;    4.410;60025.125; 0.00058; 0.00004
 768.72;  -55.377;  -60.090;60071.797; 0.00023; 0.00001
 769.29;  -38.477;  -67.089;59639.867; 0.00141; 0.00009
 769.86;    7.624;  -23.589;59723.941; 0.00155; 0.00010
 770.43;  -64.376;  -70.789;59481.012; 0.00032; 0.00002
 771.00;   -8.575;  -23.889;59468.387; 0.00077; 0.00005
 771.58;   -9.675;  -28.989;59318.758; 0.00097; 0.00006
 772.15;  -45.674;  -52.189;58759.230; 0.00033; 0.00002
 772.72;    9.126;  -37.988;58501.004; 0.00240; 0.00016
 773.29;  -19.073;  -35.288;58823.375; 0.00082; 0.00005
 773.86;  -44.873;  -63.988;58642.848; 0.00098; 0.00006
 774.43;  -18.772;  -45.688;58347.719; 0.00139; 0.00009
 775.00;   -1.571;  -35.588;58084.594; 0.00176; 0.00011
 775.57;    6.829;  -19.788;58187.266; 0.00138; 0.00009
 776.14;   10.730;  -18.088;57666.438; 0.00151; 0.00010
 776.71;   -1.770;   -8.287;57754.707; 0.00034; 0.00002
 777.28;  -13.369;  -40.287;57916.582; 0.00142; 0.00009
 777.85;  -27.969;  -35.687;57633.352; 0.00041; 0.00003
 778.42;    5.032;  -21.987;57701.227; 0.00144; 0.00009
 778.99;    4.032;   -5.487;57689.199; 0.00051; 0.00003
 779.56;  -35.967;  -38.687;57683.570; 0.00015; 0.00001
 780.13;  -30.167;  -32.086;57522.441; 0.00010; 0.00001
 780.70;   16.834;   -9.286;57127.715; 0.00143; 0.00009
 781.27;   -0.766;   -7.286;57373.688; 0.00036; 0.00002
 781.84;  -40.465;  -46.486;57035.359; 0.00033; 0.00002
 782.41;    1.635;    2.714;57011.230;-0.00006; 0.00000
 782.98;  -14.064;  -40.186;56933.703; 0.00146; 0.00010
 783.55;  -12.964;  -26.885;56749.277; 0.00078; 0.00005
 784.12;    4.237;   -8.485;56663.449; 0.00072; 0.00005
 784.69;   19.037;   -0.885;56571.520; 0.00113; 0.00007
 785.26;  -27.562;  -38.585;56155.594; 0.00063; 0.00004
 785.83;  -65.062;  -65.785;56493.266; 0.00004; 0.00000
 786.40;   -3.261;    0.715;56145.137;-0.00023;-0.00002
 786.97;   16.040;    3.616;56138.109; 0.00072; 0.00005
 787.54;   19.640;   10.016;55947.883; 0.00056; 0.00004
 788.11;   28.241;    3.716;55781.355; 0.00144; 0.00009
 788.68;  -39.359;  -43.284;55704.926; 0.00023; 0.00002
 789.25;   -1.858;  -19.784;55524.000; 0.00107; 0.00007
 789.82;    8.542;  -19.184;55552.473; 0.00166; 0.00011
 790.39;   -4.157;  -20.284;55451.941; 0.00097; 0.00006
 790.96;  -14.657;  -30.183;55430.816; 0.00094; 0.00006
 791.52;  -26.456;  -42.683;55217.586; 0.00099; 0.00007
 792.09;   41.744;   20.717;55290.262; 0.00129; 0.00009
 792.66;   -5.655;  -17.783;54793.531; 0.00075; 0.00005
 793.23;   56.945;   29.917;54894.703; 0.00167; 0.00011
 793.80;   -9.654;  -20.883;54770.176; 0.00070; 0.00005
 794.37;   -2.154;  -12.482;54456.648; 0.00065; 0.00004
 794.94;   -1.653;  -15.882;54176.121; 0.00090; 0.00006
 795.51;   -6.953;  -28.782;54046.492; 0.00138; 0.00009
 796.08;  -13.752;  -24.282;53871.066; 0.00067; 0.00004
 796.65;  -22.252;  -32.682;53578.039; 0.00067; 0.00004
 797.21;   29.649;   15.018;53301.109; 0.00094; 0.00006
 797.78;   -0.851;   -2.581;52997.883; 0.00011; 0.00001
 798.35;   46.650;   21.219;52509.055; 0.00166; 0.00011
 798.92;  693.050;  513.919;52532.129; 0.01171; 0.00078
 799.49;  -22.449;  -35.681;52089.301; 0.00087; 0.00006
 800.06;   25.452;   28.719;51915.273;-0.00022;-0.00001
 800.63;   32.252;   14.719;51659.145; 0.00117; 0.00008
 801.20;  -21.247;   -5.981;51781.215;-0.00102;-0.00007
 801.76;   -2.547;  -16.280;51808.391; 0.00093; 0.00006
 802.33;    8.054;  -19.980;51489.063; 0.00190; 0.00013
 802.90;   39.954;   13.720;51322.234; 0.00179; 0.00012
 803.47;   -6.045;  -18.880;51648.906; 0.00087; 0.00006
 804.04;  -17.045;  -35.980;51628.277; 0.00130; 0.00009
 804.61;   26.056;   19.920;51369.352; 0.00042; 0.00003
 805.17;  -19.644;  -29.679;51365.223; 0.00069; 0.00005
 805.74;  -23.043;  -39.079;51444.695; 0.00110; 0.00007
 806.31;   -1.643;   -5.479;51037.367; 0.00027; 0.00002
 806.88;  -46.542;  -54.379;51096.238; 0.00054; 0.00004
 807.45;  -43.642;  -68.279;50997.012; 0.00172; 0.00012
 808.01;   -7.341;  -10.179;50947.582; 0.00020; 0.00001
 808.58;   66.159;   46.122;50841.555; 0.00141; 0.00010
 809.15;   14.160;   -2.878;50956.328; 0.00120; 0.00008
 809.72;   32.160;   -0.878;50689.500; 0.00235; 0.00016
 810.29;    8.461;  -17.978;50169.973; 0.00190; 0.00013
 810.85;   -2.939;  -26.178;50108.844; 0.00168; 0.00011
 811.42;  -20.238;  -28.178;49628.117; 0.00058; 0.00004
 811.99;   -9.837;  -21.777;49373.191; 0.00088; 0.00006
 812.56;  -15.437;  -33.177;48973.660; 0.00132; 0.00009
 813.12;   21.164;   -3.077;48451.535; 0.00183; 0.00012
 813.69;   -0.436;  -13.577;48256.105; 0.00100; 0.00007
 814.26;   -5.835;  -20.277;47696.578; 0.00111; 0.00008
 814.83;  -16.635;  -31.777;47276.250; 0.00118; 0.00008
 815.39;  -39.234;  -59.377;47147.422; 0.00158; 0.00011
 815.96;    1.666;  -17.676;46894.797; 0.00153; 0.00010
 816.53;   77.867;   31.324;46686.770; 0.00370; 0.00025
 817.10;  -17.133;  -36.476;46572.539; 0.00155; 0.00011
 817.66;  -43.632;  -62.676;46288.414; 0.00154; 0.00011
 818.23;  -62.032;  -64.176;46067.184; 0.00017; 0.00001
 818.80;  -42.931;  -57.476;45888.656; 0.00119; 0.00008
 819.37;    3.269;  -14.975;45872.930; 0.00150; 0.00010
 819.93;  -35.830;  -52.875;45789.703; 0.00141; 0.00010
 820.50;  -50.530;  -60.375;45226.676; 0.00082; 0.00006
 821.07;  -51.329;  -53.175;45200.645; 0.00015; 0.00001
 821.63;  119.971;   55.925;44835.719; 0.00541; 0.00037
 822.20;   84.272;   64.025;44818.590; 0.00172; 0.00012
 822.77;    4.872;  -15.174;44641.164; 0.00171; 0.00012
 823.34;  -26.927;  -35.774;44447.734; 0.00076; 0.00005
 823.90;  -27.827;  -36.574;44150.906; 0.00076; 0.00005
 824.47;    7.674;  -11.074;44035.379; 0.00163; 0.00011
 825.04;  -19.925;  -41.474;43910.254; 0.00188; 0.00013
 825.60;  -13.225;  -14.574;43882.324; 0.00012; 0.00001
 826.17;  -61.024;  -55.874;43471.496;-0.00046;-0.00003
 826.74;  -36.224;  -44.173;43311.770; 0.00071; 0.00005
 827.30;  -38.223;  -53.173;42923.641; 0.00134; 0.00009
 827.87;  -15.023;  -20.273;42849.914; 0.00047; 0.00003
 828.43;   -5.922;  -26.873;42678.484; 0.00190; 0.00013
 829.00;  -38.922;  -65.173;42585.656; 0.00239; 0.00017
 829.57;  -15.121;  -25.773;42440.332; 0.00097; 0.00007
 830.13;  -66.521;  -73.272;42015.703; 0.00062; 0.00004
 830.70;  -37.720;  -56.972;41864.375; 0.00177; 0.00012
 831.27;  -13.820;  -33.672;41474.148; 0.00185; 0.00013
 831.83;  -43.519;  -53.372;41387.020; 0.00092; 0.00006
 832.40;  -18.819;  -22.572;41185.090; 0.00035; 0.00002
 832.97;   36.782;    6.828;41002.664; 0.00283; 0.00020
 833.53;  -24.618;  -43.071;41077.836; 0.00175; 0.00012
 834.10;  -32.817;  -39.071;40836.008; 0.00060; 0.00004
 834.66;  -41.617;  -53.871;40648.781; 0.00117; 0.00008
 835.23;  -15.416;  -42.671;40573.055; 0.00262; 0.00018
 835.80;  -45.916;  -61.771;40440.824; 0.00154; 0.00011
 836.36;  -34.315;  -41.671;40334.199; 0.00072; 0.00005
 836.93;    9.786;  -18.970;40271.168; 0.00280; 0.00020
 837.49;   50.986;   18.630;40151.543; 0.00317; 0.00022
 838.06;  -11.413;  -28.470;40058.313; 0.00167; 0.00012
 838.62;  -23.913;  -48.070;39899.086; 0.00239; 0.00017
 839.19;   -3.312;  -37.770;39905.758; 0.00342; 0.00024
 839.76;  -36.212;  -32.870;39728.430;-0.00033;-0.00002
 840.32;  -50.811;  -66.470;39485.805; 0.00157; 0.00011
 840.89;  217.689;  172.031;39678.176; 0.00459; 0.00032
 841.45;  -10.510;  -25.669;39488.348; 0.00153; 0.00011
 842.02;  -64.510;  -76.369;39167.621; 0.00121; 0.00008
 842.58;  -38.009;  -50.069;39187.094; 0.00123; 0.00009
 843.15;   33.591;   -4.269;39180.465; 0.00389; 0.00027
 843.71;  -43.308;  -48.569;39060.836; 0.00054; 0.00004
 844.28;  -60.408;  -79.768;38864.809; 0.00201; 0.00014
 844.84;    4.293;  -21.268;38862.082; 0.00265; 0.00019
 845.41;  -36.207;  -51.168;38615.355; 0.00156; 0.00011
 845.97;  -42.906;  -56.768;38402.527; 0.00145; 0.00010
 846.54;  -41.406;  -51.168;38075.898; 0.00103; 0.00007
 847.10;  -18.405;  -35.168;38229.371; 0.00177; 0.00013
 847.67;  -51.205;  -58.667;37966.344; 0.00079; 0.00006
 848.23;  -16.104;  -48.767;38067.414; 0.00348; 0.00025
 848.80;    2.496;  -17.467;38042.086; 0.00213; 0.00015
 849.36;  -24.803;  -46.167;37738.262; 0.00230; 0.00016
 849.93;  -12.102;  -31.867;37655.934; 0.00214; 0.00015
 850.49;  -32.102;  -39.867;37582.004; 0.00085; 0.00006
 851.06;  -51.501;  -69.367;37505.277; 0.00195; 0.00014
 851.62;  -22.901;  -54.266;37262.051; 0.00345; 0.00025
 852.19;  -39.800;  -42.866;37233.020; 0.00034; 0.00002
 852.75;  -51.500;  -60.466;37155.895; 0.00099; 0.00007
 853.32;  -22.199;  -28.666;37105.266; 0.00072; 0.00005
 853.88;   -8.699;  -39.666;36902.438; 0.00347; 0.00025
 854.45;   -6.698;  -18.166;37137.012; 0.00128; 0.00009
 855.01;   28.502;   -2.965;37010.383; 0.00353; 0.00025
 855.57;  -34.697;  -51.465;36921.453; 0.00189; 0.00014
 856.14;  -42.797;  -63.265;36626.629; 0.00233; 0.00017
 856.70;  -42.796;  -49.365;36714.199; 0.00075; 0.00005
 857.27;  -22.896;  -44.865;36510.172; 0.00252; 0.00018
 857.83;  -77.895;  -84.265;36357.344; 0.00073; 0.00005
 858.40;   37.905;   -2.264;36322.215; 0.00462; 0.00033
 858.96;  -29.694;  -44.364;36140.387; 0.00170; 0.00012
 859.52;   -6.394;  -42.264;36171.262; 0.00416; 0.00030
 860.09;  -33.893;  -43.564;35921.734; 0.00113; 0.00008
 860.65;  -10.493;  -34.264;35764.504; 0.00279; 0.00020
 861.22;  -33.692;  -42.764;35727.977; 0.00107; 0.00008
 861.78;   -1.591;  -17.363;35638.051; 0.00186; 0.00013
 862.34;  -34.591;  -50.163;35649.922; 0.00185; 0.00013
 862.91;  -21.390;  -41.863;35682.594; 0.00243; 0.00017
 863.47;  129.710;   60.137;35224.566; 0.00835; 0.00060
 864.03;  -48.989;  -59.263;35401.738; 0.00123; 0.00009
 864.60;   -0.689;  -21.663;35293.512; 0.00252; 0.00018
 865.16;  -43.188;  -66.963;35132.184; 0.00288; 0.00021
 865.73;  -23.088;  -31.262;35111.855; 0.00099; 0.00007
 866.29;  111.513;   71.938;35043.527; 0.00482; 0.00035
 866.85;  -52.787;  -70.162;34721.301; 0.00213; 0.00015
 867.42;  -10.686;  -40.162;34616.371; 0.00363; 0.00026
 867.98;  -47.786;  -64.262;34527.145; 0.00204; 0.00015
 868.54;    8.515;  -24.162;34441.617; 0.00405; 0.00029
 869.11;  -61.285;  -61.461;34366.289; 0.00002; 0.00000
 869.67;  -20.984;  -42.861;34234.863; 0.00274; 0.00020
 870.23;  -27.884;  -40.861;34228.133; 0.00164; 0.00012
 870.80;  -25.483;  -52.761;33878.707; 0.00348; 0.00025
 871.36;  -51.583;  -63.361;33584.379; 0.00152; 0.00011
 871.92;   39.718;    8.139;33514.352; 0.00409; 0.00030
 872.48;  -57.782;  -60.360;33352.023; 0.00034; 0.00002
 873.05;  -15.381;  -35.560;33107.297; 0.00266; 0.00019
 873.61;  -29.081;  -45.160;33006.969; 0.00212; 0.00015
 874.17;  -26.480;  -40.060;32897.238; 0.00180; 0.00013
 874.74;  -54.480;  -53.560;32747.340;-0.00012;-0.00001
 875.30;  -33.480;  -37.760;32872.738; 0.00057; 0.00004
 875.86;  -48.680;  -51.360;32962.238; 0.00036; 0.00003
 876.42;  -47.380;  -67.560;32924.941; 0.00270; 0.00020
 876.99;  -35.880;  -48.260;32876.039; 0.00166; 0.00012
 877.55;  -31.480;  -37.360;32981.738; 0.00079; 0.00006
 878.11;  -16.480;  -22.860;32831.238; 0.00086; 0.00006
 878.68;  -27.180;  -32.460;32682.740; 0.00071; 0.00005
 879.24;  -17.180;  -39.460;32631.039; 0.00303; 0.00022
 879.80;   -7.780;  -20.160;32451.240; 0.00169; 0.00012
 880.36;  -17.680;  -46.060;32387.539; 0.00389; 0.00029
 880.92;  -18.680;  -26.660;32337.240; 0.00109; 0.00008
 881.49;  -14.980;  -40.960;32357.840; 0.00357; 0.00026
 882.05;  -19.980;  -23.460;32220.439; 0.00048; 0.00004
 882.61;   17.020;   10.040;32083.240; 0.00097; 0.00007
 883.17;  -26.180;  -41.360;32091.740; 0.00211; 0.00016
 883.74;  -14.780;  -34.960;32096.439; 0.00282; 0.00021
 884.30;  -38.980;  -64.260;31958.539; 0.00354; 0.00026
 884.86;   -4.680;   -1.260;32176.439;-0.00048;-0.00004
 885.42;  -24.580;  -51.460;32150.439; 0.00378; 0.00028
 885.98;  -43.180;  -57.160;32145.740; 0.00196; 0.00014
 886.55;  -19.880;  -37.560;32321.740; 0.00247; 0.00018
 887.11;   -6.880;  -30.260;32423.840; 0.00326; 0.00024
 887.67;  -20.580;  -20.460;32421.840;-0.00002; 0.00000
 888.23;  -48.780;  -65.360;32570.340; 0.00231; 0.00017
 888.79;   12.320;  -21.260;32596.740; 0.00467; 0.00035
 889.35;  -38.780;  -61.160;32642.240; 0.00311; 0.00023
 889.92;    7.420;  -17.060;32765.641; 0.00340; 0.00025
 890.48;  174.120;  103.240;32825.039; 0.00981; 0.00073
 891.04;  -29.280;  -43.860;32990.238; 0.00201; 0.00015
 891.60;  -46.080;  -53.960;33047.441; 0.00109; 0.00008
 892.16;   -2.480;  -20.360;33188.941; 0.00245; 0.00018
 892.72;  -34.280;  -52.660;33357.141; 0.00251; 0.00019
 893.29;  -55.080;  -67.860;33494.738; 0.00174; 0.00013
 893.85;  -28.580;  -38.260;33665.738; 0.00131; 0.00010
 894.41;  -55.680;  -50.860;33926.641;-0.00065;-0.00005
 894.97;    1.520;  -10.160;33988.340; 0.00158; 0.00012
 895.53;  -46.780;  -52.860;34219.238; 0.00082; 0.00006
 896.09;  -19.780;  -52.360;34269.340; 0.00436; 0.00033
 896.65;  -38.180;  -45.760;34260.641; 0.00102; 0.00008
 897.21;   -0.080;  -11.360;34229.039; 0.00152; 0.00011
 897.77;  -28.380;  -39.360;34355.941; 0.00147; 0.00011
 898.34;  -25.980;  -35.160;34076.141; 0.00124; 0.00009
 898.90;   -4.180;  -22.960;33978.840; 0.00255; 0.00019
 899.46;   -7.480;  -22.260;34144.141; 0.00201; 0.00015
 900.02;   30.220;    5.240;33674.641; 0.00342; 0.00026
 900.58;    2.320;  -25.260;33671.941; 0.00380; 0.00029
 901.14;   26.820;   11.740;33538.441; 0.00209; 0.00016
 901.70;    4.220;  -14.960;33275.141; 0.00268; 0.00020
 902.26;  -44.980;  -55.160;33006.840; 0.00143; 0.00011
 902.82;   34.420;   -4.560;33014.641; 0.00551; 0.00042
 903.38;  -27.080;  -45.360;32705.539; 0.00261; 0.00020
 903.94;   -8.280;  -10.360;32674.340; 0.00030; 0.00002
 904.50;  -24.580;  -32.260;32451.039; 0.00111; 0.00008
 905.06;   -7.780;  -40.660;32229.039; 0.00477; 0.00036
 905.62;   -2.980;  -22.960;31916.439; 0.00293; 0.00022
 906.18;  -11.880;  -39.760;31805.539; 0.00411; 0.00031
 906.74;  -47.780;  -67.460;31546.039; 0.00293; 0.00022
 907.30;   26.820;   -3.160;31284.939; 0.00450; 0.00034
 907.86;   16.420;   -7.460;31088.240; 0.00361; 0.00027
 908.42;   29.320;   20.040;30928.240; 0.00141; 0.00011
 908.98;   22.320;    4.940;30791.240; 0.00267; 0.00020
 909.54;    0.120;  -10.960;30862.939; 0.00170; 0.00013
 910.10;   41.020;    7.340;30640.740; 0.00520; 0.00040
 910.66;    3.620;  -22.660;30446.240; 0.00409; 0.00031
 911.22;   -5.880;  -22.860;30321.141; 0.00266; 0.00020
 911.78;  -57.080;  -62.760;29941.939; 0.00090; 0.00007
 912.34;   15.220;    0.540;29914.439; 0.00233; 0.00018
 912.90;   26.320;    8.240;29777.039; 0.00289; 0.00022
 913.46;  -49.080;  -57.660;29485.039; 0.00138; 0.00011
 914.02;  -26.580;  -50.860;29482.439; 0.00392; 0.00030
 914.58;  -18.480;  -34.560;29279.641; 0.00261; 0.00020
 915.14;  -33.180;  -39.560;29122.939; 0.00104; 0.00008
 915.70;   -2.280;  -26.460;29026.539; 0.00398; 0.00030
 916.26;    6.720;  -11.060;28810.641; 0.00294; 0.00023
 916.82;  -40.180;  -53.760;28635.939; 0.00226; 0.00017
 917.38;   34.120;   -4.360;28403.039; 0.00644; 0.00049
 917.94;  123.120;   77.740;28214.240; 0.00765; 0.00059
 918.50;  -24.080;  -43.160;28052.641; 0.00323; 0.00025
 919.06;   12.820;  -12.660;27890.340; 0.00435; 0.00033
 919.62;  -28.380;  -44.260;27654.439; 0.00274; 0.00021
 920.18;   -3.880;  -19.560;27634.840; 0.00270; 0.00021
 920.73;  -25.080;  -28.760;27550.340; 0.00064; 0.00005
 921.29;  -20.680;  -39.960;27017.641; 0.00337; 0.00026
 921.85;    2.520;  -19.360;27000.840; 0.00386; 0.00030
 922.41;  -27.880;  -48.960;26863.840; 0.00372; 0.00029
 922.97;  -14.880;  -28.260;26599.539; 0.00239; 0.00018
 923.53;   32.620;    6.840;26105.939; 0.00464; 0.00036
 924.09;  -14.280;  -39.960;26005.141; 0.00466; 0.00036
 924.65;  -29.380;  -44.460;25817.740; 0.00276; 0.00021
 925.21;  -18.980;  -38.360;25588.039; 0.00358; 0.00028
 925.76;  -29.580;  -37.160;25424.439; 0.00140; 0.00011
 926.32;    4.820;  -18.460;25229.539; 0.00434; 0.00034
 926.88;  -15.780;  -26.860;25060.340; 0.00208; 0.00016
 927.44;  -14.280;  -30.560;24711.039; 0.00309; 0.00024
 928.00;  153.120;  103.140;24361.641; 0.00957; 0.00074
 928.56;    7.820;  -24.160;24109.539; 0.00617; 0.00048
 929.12;   -9.980;  -22.460;23807.740; 0.00243; 0.00019
 929.67;   38.020;   11.240;23666.840; 0.00523; 0.00041
 930.23;  -31.380;  -44.060;23355.141; 0.00250; 0.00019
 930.79;   -4.680;  -22.260;22957.439; 0.00351; 0.00027
 931.35;  -20.080;  -33.760;22612.039; 0.00275; 0.00021
 931.91;  -29.880;  -43.460;22275.939; 0.00277; 0.00022
 932.46;    7.420;  -17.460;21815.141; 0.00514; 0.00040
 933.02;  -22.880;  -44.760;21264.539; 0.00458; 0.00036
 933.58;  -31.480;  -48.760;20844.740; 0.00369; 0.00029
 934.14;  -51.980;  -75.860;20402.141; 0.00521; 0.00041
 934.70;  -40.580;  -52.060;19642.840; 0.00257; 0.00020
 935.25;  -23.780;  -32.560;19307.439; 0.00201; 0.00016
 935.81;   92.920;   46.540;18676.840; 0.01095; 0.00086
 936.37;  -19.580;  -41.860;17979.240; 0.00542; 0.00042
 936.93;   18.720;    4.940;17501.539; 0.00348; 0.00027
 937.49;  -10.980;  -33.060;16906.439; 0.00579; 0.00045
 938.04;  -24.080;  -27.860;16194.840; 0.00104; 0.00008
 938.60;  -29.380;  -49.460;15755.940; 0.00569; 0.00045
 939.16;  -22.380;  -41.560;15186.640; 0.00564; 0.00044
 939.72;  -64.280;  -45.660;14717.140;-0.00566;-0.00044
 940.27;   34.320;    5.340;14265.840; 0.00910; 0.00071
 940.83;  -24.780;  -30.960;14046.340; 0.00199; 0.00016
 941.39;   -4.880;  -21.960;13687.040; 0.00561; 0.00044
 941.94;  -54.480;  -74.960;13350.740; 0.00688; 0.00054
 942.50;  -15.580;  -32.560;13158.740; 0.00579; 0.00046
 943.06;    2.320;    5.340;13027.240;-0.00104;-0.00008
 943.62;   18.520;    9.540;12943.740; 0.00310; 0.00024
 944.17;   16.320;  -21.460;12754.540; 0.01312; 0.00104
 944.73;   58.920;   20.940;12761.440; 0.01317; 0.00104
 945.29;   13.620;  -10.860;12770.440; 0.00846; 0.00067
 945.84;  -39.980;  -58.560;12694.340; 0.00641; 0.00051
 946.40;  -46.580;  -63.660;12711.140; 0.00583; 0.00046
 946.96;   23.120;    1.240;12656.240; 0.00745; 0.00059
 947.52;  -13.680;  -40.660;12695.840; 0.00912; 0.00072
 948.07;   -5.280;  -35.260;12718.240; 0.01004; 0.00080
 948.63;   46.420;   21.340;12818.540; 0.00831; 0.00066
 949.19;  -12.280;  -30.760;12749.440; 0.00607; 0.00048
 949.74;  -68.880;  -80.460;12760.940; 0.00376; 0.00030
 950.30;   -7.480;  -30.260;12769.340; 0.00734; 0.00058
 950.85;   -1.480;  -22.260;12864.940; 0.00664; 0.00053
 951.41;  -42.580;  -58.160;12893.340; 0.00493; 0.00039
 951.97;   24.020;    5.540;12921.640; 0.00578; 0.00046
 952.52;    9.120;  -11.260;12865.640; 0.00633; 0.00050
 953.08;  -11.180;  -37.660;12883.640; 0.00816; 0.00065
 953.64;    5.020;  -29.560;12846.440; 0.01057; 0.00084
 954.19;   27.420;   -1.760;12893.040; 0.00883; 0.00070
 954.75;   21.420;   10.140;12872.140; 0.00340; 0.00027
 955.31;   38.420;    8.440;12867.940; 0.00896; 0.00072
 955.86;  -32.380;  -51.160;12774.540; 0.00558; 0.00045
 956.42;  -30.080;  -47.560;12672.940; 0.00518; 0.00041
 956.97;  -30.780;  -60.260;12694.140; 0.00869; 0.00069
 957.53;  -15.480;  -30.260;12611.240; 0.00436; 0.00035
 958.09;   -8.880;  -20.760;12552.340; 0.00349; 0.00028
 958.64;   -6.080;  -20.260;12570.040; 0.00414; 0.00033
 959.20;   -2.280;  -21.960;12548.940; 0.00572; 0.00046
 959.75;  -23.080;  -29.960;12427.440; 0.00200; 0.00016
 960.31;   -7.680;  -33.860;12418.840; 0.00759; 0.00061
 960.86;   55.920;   19.440;12464.640; 0.01055; 0.00085
 961.42;  -11.780;  -29.560;12414.340; 0.00515; 0.00041
 961.98;  -27.580;  -50.460;12345.240; 0.00663; 0.00053
 962.53;  -17.080;  -42.460;12397.740; 0.00737; 0.00059
 963.09;   51.020;   11.640;12366.040; 0.01139; 0.00092
 963.64;   26.320;    6.040;12375.340; 0.00587; 0.00047
 964.20;  -48.680;  -62.260;12267.840; 0.00393; 0.00032
 964.75;   -8.180;  -24.260;12291.440; 0.00467; 0.00038
 965.31;  -50.980;  -74.160;12248.040; 0.00675; 0.00054
 965.86;  -15.980;  -36.360;12229.140; 0.00593; 0.00048
 966.42;   28.520;   34.440;12234.340;-0.00173;-0.00014
 966.97;   34.020;    3.540;12259.840; 0.00891; 0.00072
 967.53;  -16.780;  -22.060;12095.440; 0.00155; 0.00013
 968.08;  -13.380;  -47.460;12157.440; 0.01003; 0.00081
 968.64;   19.320;   -7.160;12042.340; 0.00784; 0.00063
 969.19;   21.220;   -3.160;12075.540; 0.00724; 0.00059
 969.75;   35.920;   14.040;12006.840; 0.00649; 0.00053
 970.30;    7.220;   -8.460;12064.140; 0.00467; 0.00038
 970.86;   13.520;   -6.260;11971.840; 0.00590; 0.00048
 971.41;   -6.980;  -25.960;11845.240; 0.00572; 0.00046
 971.97;   -4.580;  -14.860;11835.640; 0.00310; 0.00025
 972.52;  -44.580;  -55.660;11665.740; 0.00336; 0.00027
 973.08;   37.420;   18.540;11714.240; 0.00576; 0.00047
 973.63;   59.320;   39.540;11663.040; 0.00605; 0.00049
 974.19;    1.920;   -9.060;11593.140; 0.00337; 0.00027
 974.74;   -5.180;  -14.360;11666.640; 0.00283; 0.00023
 975.29;  296.820;  203.340;11620.240; 0.02899; 0.00236
 975.85;   60.920;   32.040;11558.040; 0.00899; 0.00073
 976.40;   42.020;    8.740;11484.040; 0.01047; 0.00085
 976.96;   43.220;    4.240;11406.940; 0.01233; 0.00101
 977.51;   -1.080;  -29.860;11398.840; 0.00914; 0.00075
 978.07;  -16.280;  -31.760;11290.240; 0.00494; 0.00040
 978.62;   11.320;    1.440;11281.240; 0.00318; 0.00026
 979.17;  407.020;  273.840;11228.340; 0.04300; 0.00352
 979.73;  -25.980;  -36.360;11150.440; 0.00338; 0.00028
 980.28;   25.120;    6.440;11178.640; 0.00610; 0.00050
 980.84;   18.320;    7.040;11049.840; 0.00371; 0.00030
 981.39;  -18.780;  -30.960;11067.040; 0.00403; 0.00033
 981.94;    9.920;    4.640;10985.940; 0.00176; 0.00014
 982.50;   14.520;  -14.560;10875.540; 0.00976; 0.00080
 983.05;   23.520;   -3.160;10793.640; 0.00902; 0.00074
 983.60;   77.320;   45.340;10866.340; 0.01085; 0.00089
 984.16;   35.820;   18.140;10723.040; 0.00607; 0.00050
 984.71;   12.520;    0.140;10737.640; 0.00426; 0.00035
 985.27;   -3.180;  -30.160;10610.940; 0.00941; 0.00077
 985.82;   24.720;    5.540;10600.940; 0.00672; 0.00055
 986.37;   38.120;   20.340;10579.940; 0.00629; 0.00052
 986.93;   22.820;   -7.560;10493.140; 0.01081; 0.00089
 987.48;  -28.680;  -38.060;10429.940; 0.00336; 0.00028
 988.03;    0.620;  -12.360;10433.640; 0.00468; 0.00039
 988.59;   -3.780;  -21.760;10379.140; 0.00650; 0.00054
 989.14;   31.420;   -6.160;10316.040; 0.01381; 0.00114
 989.69;   -3.980;  -20.160;10319.540; 0.00598; 0.00049
 990.24;    2.520;  -22.960;10192.540; 0.00952; 0.00079
 990.80;  -22.080;  -35.660;10144.240; 0.00512; 0.00042
 991.35;  -24.680;  -51.160;10015.240; 0.01005; 0.00083
 991.90;    9.120;    1.340;10114.540; 0.00296; 0.00025
 992.46;  -16.980;  -37.460;10020.740; 0.00789; 0.00065
 993.01;  -30.280;  -36.260; 9927.640; 0.00232; 0.00019
 993.56;  198.220;  119.940; 9917.940; 0.03070; 0.00255
 994.11;   -0.180;  -11.460; 9840.440; 0.00446; 0.00037
 994.67;   -7.780;  -21.260; 9785.640; 0.00538; 0.00045
 995.22;  -11.280;  -30.460; 9703.340; 0.00773; 0.00064
 995.77;  -32.180;  -38.960; 9635.340; 0.00275; 0.00023
 996.33;   11.520;   -4.560; 9637.840; 0.00659; 0.00055
 996.88;  -14.180;  -27.760; 9517.540; 0.00559; 0.00047
 997.43;  -29.480;  -28.760; 9472.340;-0.00030;-0.00003
 997.98;   33.320;    3.140; 9370.640; 0.01274; 0.00106
 998.53;   46.020;   21.740; 9336.240; 0.01035; 0.00086
 999.09;   -8.980;  -30.660; 9233.940; 0.00935; 0.00078
 999.64;  -24.580;  -51.060; 9121.140; 0.01152; 0.00096
1000.19;  -12.680;  -44.160; 9086.640; 0.01383; 0.00116
1000.74;  -40.380;  -57.060; 9052.540; 0.00743; 0.00062
1001.30;  -18.480;  -19.160; 8993.240; 0.00031; 0.00003
1001.85;  -16.980;  -25.660; 8888.440; 0.00395; 0.00033
1002.40;  -38.280;  -49.260; 8808.140; 0.00507; 0.00042
1002.95;   38.120;    2.840; 8765.740; 0.01646; 0.00138
1003.50;   45.320;   15.340; 8714.040; 0.01425; 0.00120
1004.06;    8.820;  -28.160; 8593.740; 0.01791; 0.00150
1004.61;  167.320;  109.140; 8532.040; 0.02864; 0.00241
1005.16;  210.420;  142.040; 8522.340; 0.03407; 0.00286
1005.71;   33.520;   -2.660; 8537.740; 0.01822; 0.00153
1006.26;   -7.980;  -31.660; 8503.640; 0.01209; 0.00102
1006.81;  -39.080;  -57.860; 8549.940; 0.00965; 0.00081
1007.37;   14.320;  -12.460; 8518.340; 0.01392; 0.00117
1007.92;  -23.580;  -58.960; 8547.040; 0.01843; 0.00155
1008.47;    4.320;   -9.560; 8650.340; 0.00722; 0.00061
1009.02;    6.120;  -14.960; 8730.740; 0.01097; 0.00093
1009.57;   37.120;    5.940; 8770.540; 0.01606; 0.00136
1010.12;  -40.780;  -70.360; 8819.940; 0.01504; 0.00127
1010.67;   11.420;   -4.160; 8938.440; 0.00776; 0.00066
1011.22;   34.320;    5.640; 9023.540; 0.01398; 0.00118
1011.78;  -32.880;  -42.460; 9062.440; 0.00458; 0.00039
1012.33;  -33.280;  -45.560; 9068.940; 0.00577; 0.00049
1012.88;   65.820;   28.740; 9182.740; 0.01723; 0.00146
1013.43;   16.520;  -11.760; 9165.640; 0.01313; 0.00111
1013.98;   39.320;    6.840; 9256.140; 0.01509; 0.00128
1014.53;  -23.480;  -34.460; 9202.140; 0.00516; 0.00044
1015.08;  -39.380;  -44.660; 9159.840; 0.00251; 0.00021
1015.63;  -10.480;  -38.860; 9075.540; 0.01376; 0.00117
1016.18;  -33.880;  -49.160; 9064.740; 0.00753; 0.00064
1016.73;   21.420;    1.040; 8920.440; 0.01029; 0.00087
1017.28;  105.320;   59.040; 8837.240; 0.02380; 0.00202
1017.84;   -4.680;  -23.560; 8738.740; 0.00986; 0.00084
1018.39;    6.320;  -27.260; 8609.540; 0.01793; 0.00153
1018.94;  -38.480;  -47.760; 8503.540; 0.00504; 0.00043
1019.49;   37.820;   14.140; 8362.940; 0.01317; 0.00112
1020.04;   63.420;   26.240; 8286.340; 0.02105; 0.00179
1020.59;   -6.580;  -34.360; 8098.540; 0.01604; 0.00137
1021.14;  -14.580;  -19.960; 8089.340; 0.00316; 0.00027
1021.69;  -21.080;  -47.960; 7874.640; 0.01605; 0.00137
1022.24;  -24.880;  -27.460; 7839.140; 0.00157; 0.00013
1022.79;   32.920;   11.940; 7670.040; 0.01294; 0.00111
1023.34;   -5.380;  -24.560; 7596.740; 0.01203; 0.00103
1023.89;    2.720;  -12.960; 7513.240; 0.01004; 0.00086
1024.44;   -0.480;  -15.060; 7382.240; 0.00946; 0.00081
1024.99;   36.320;    0.040; 7310.940; 0.02395; 0.00205
1025.54;   78.220;   33.840; 7213.140; 0.02968; 0.00254
1026.09;  -19.580;  -34.860; 7156.540; 0.01038; 0.00089
1026.64;  -22.480;  -36.260; 7033.140; 0.00954; 0.00082
1027.19;   36.520;    6.240; 6951.540; 0.02136; 0.00183
1027.74;  -16.980;  -25.360; 6898.540; 0.00598; 0.00051
1028.29;    8.220;  -39.360; 6785.340; 0.03469; 0.00298
1028.84;   92.420;   41.840; 6689.140; 0.03741; 0.00322
1029.39;   49.620;    3.440; 6693.440; 0.03446; 0.00296
1029.94;  -11.780;  -45.260; 6563.140; 0.02550; 0.00220
1030.48;  -29.480;  -47.960; 6489.840; 0.01421; 0.00122
1031.03;  -32.380;  -33.460; 6408.040; 0.00085; 0.00007
1031.58;   16.920;   -4.360; 6390.940; 0.01697; 0.00146
1032.13;  -36.680;  -46.760; 6251.740; 0.00818; 0.00071
1032.68;   -9.080;  -40.060; 6173.540; 0.02557; 0.00221
1033.23;  -14.180;  -40.760; 6056.340; 0.02217; 0.00191
1033.78;   -5.480;  -34.060; 5982.840; 0.02426; 0.00210
1034.33;    9.120;  -18.960; 5956.340; 0.02418; 0.00209
1034.88;   79.320;   24.240; 5884.440; 0.04809; 0.00416
1035.43;  -20.480;  -43.260; 5797.040; 0.02025; 0.00175
1035.98;    0.820;  -24.560; 5726.840; 0.02291; 0.00198
1036.52;   33.220;   -7.860; 5703.140; 0.03761; 0.00326
1037.07;   28.920;   12.340; 5634.340; 0.01544; 0.00134
1037.62;   22.720;   -7.260; 5538.840; 0.02829; 0.00245
1038.17;  135.520;   72.140; 5465.440; 0.06071; 0.00527
1038.72;  -15.580;  -21.960; 5419.540; 0.00622; 0.00054
1039.27;  -13.880;  -19.060; 5313.940; 0.00514; 0.00045
1039.82;   18.020;   -9.760; 5277.140; 0.02806; 0.00244
1040.37;  -31.480;  -47.360; 5173.340; 0.01626; 0.00141
1040.91;  -22.880;  -44.660; 5135.140; 0.02264; 0.00197
1041.46;  -10.580;  -29.060; 5014.240; 0.01958; 0.00170
1042.01;  -25.980;  -49.760; 4962.740; 0.02552; 0.00222
1042.56;   -6.280;  -31.860; 4871.240; 0.02799; 0.00244
1043.11;    1.020;   -9.360; 4860.340; 0.01149; 0.00100
1043.66;   60.120;   24.240; 4779.540; 0.04043; 0.00353
1044.20;   15.420;    2.340; 4738.440; 0.01501; 0.00131
1044.75;   44.720;   14.740; 4683.040; 0.03499; 0.00306
1045.30;   53.120;   24.540; 4585.740; 0.03387; 0.00296
1045.85;    2.220;  -25.760; 4510.240; 0.03369; 0.00294
1046.40;  -35.180;  -35.760; 4447.940; 0.00071; 0.00006
1046.94;   -6.280;  -26.260; 4426.440; 0.02491; 0.00218
1047.49;   16.820;  -23.660; 4272.140; 0.05136; 0.00450
1048.04;   67.520;   37.540; 4311.640; 0.03841; 0.00336
1048.59;  -11.080;  -42.360; 4233.240; 0.04093; 0.00359
1049.13;  144.620;   81.140; 4211.040; 0.08449; 0.00741
1049.68;  -22.080;  -49.960; 4059.940; 0.03799; 0.00333
1050.23;   15.120;   -0.060; 4062.640; 0.02089; 0.00183
1050.78;  -41.680;  -55.560; 3990.540; 0.01941; 0.00170
1051.32;  -20.780;  -29.060; 3946.840; 0.01177; 0.00103
1051.87;  281.320;  172.040; 3869.840; 0.15851; 0.01394
1052.42;    8.720;  -12.460; 3825.340; 0.03124; 0.00275
1052.97;  239.420;  152.740; 3792.340; 0.12917; 0.01137
1053.51;    1.020;  -20.360; 3734.840; 0.03244; 0.00286
1054.06;   47.520;   16.740; 3661.740; 0.04735; 0.00417
1054.61;   21.620;    5.140; 3613.040; 0.02591; 0.00228
1055.16;  -21.780;  -44.160; 3555.440; 0.03554; 0.00313
1055.70;   12.920;  -25.860; 3441.340; 0.06324; 0.00558
1056.25;  -29.280;  -59.060; 3388.740; 0.04946; 0.00437
1056.80;  -17.280;  -37.360; 3359.040; 0.03376; 0.00298
1057.34;  -14.380;  -46.760; 3323.340; 0.05532; 0.00489
1057.89;  -15.980;  -38.760; 3294.340; 0.03949; 0.00349
1058.44;   21.720;    3.040; 3243.440; 0.03286; 0.00291
1058.98;  -13.780;  -34.660; 3181.040; 0.03750; 0.00332
1059.53;   12.820;  -18.360; 3089.840; 0.05697; 0.00505
1060.08;   14.320;  -21.560; 3095.640; 0.06675; 0.00591
1060.62;  123.820;   80.440; 3037.940; 0.08167; 0.00724
1061.17;  -10.380;  -35.060; 2981.040; 0.04729; 0.00419
1061.72;   17.620;  -17.560; 2925.640; 0.06872; 0.00610
1062.26;   22.220;    0.640; 2887.140; 0.04292; 0.00381
1062.81;   20.520;    2.640; 2868.640; 0.03633; 0.00323
1063.36;   15.720;   -3.960; 2810.640; 0.04054; 0.00360
1063.90;   22.620;    2.840; 2776.140; 0.04159; 0.00370
1064.45;    3.820;  -15.760; 2733.940; 0.04187; 0.00372
1064.99;   13.820;  -21.260; 2665.640; 0.07645; 0.00680
1065.54;  -13.880;  -27.260; 2665.140; 0.02963; 0.00264
1066.09;   32.220;    1.540; 2624.740; 0.06919; 0.00617
1066.63;    5.020;   -4.460; 2613.240; 0.02166; 0.00193
1067.18;   84.020;   50.140; 2546.940; 0.07925; 0.00707
1067.72;   29.820;   -8.860; 2507.940; 0.09186; 0.00820
1068.27;   -4.080;  -31.060; 2435.040; 0.06488; 0.00579
1068.82;   57.120;   24.740; 2427.340; 0.07928; 0.00708
1069.36;   19.920;   -1.560; 2384.540; 0.05343; 0.00478
1069.91;  -17.680;  -27.160; 2395.540; 0.02382; 0.00213
1070.45;    7.220;   -9.660; 2355.540; 0.04322; 0.00387
1071.00;  -25.580;  -43.760; 2277.640; 0.04714; 0.00422
1071.54;    8.820;  -14.260; 2266.040; 0.06091; 0.00546
1072.09;   91.220;   61.540; 2286.540; 0.07962; 0.00713
1072.64;   13.820;   -2.360; 2225.240; 0.04420; 0.00396
1073.18;  127.220;   75.840; 2212.340; 0.14145; 0.01269
1073.73;  192.120;  126.340; 2142.340; 0.18439; 0.01655
1074.27;   -6.180;  -35.860; 2113.340; 0.08395; 0.00754
1074.82;   47.920;    9.440; 2108.140; 0.11074; 0.00995
1075.36;   40.920;    9.140; 2087.140; 0.09297; 0.00836
1075.91;   20.220;    4.140; 2074.740; 0.04769; 0.00429
1076.45;   26.520;   13.340; 2031.240; 0.03955; 0.00356
1077.00;    6.320;  -14.560; 1990.740; 0.06358; 0.00572
1077.54;   34.520;   19.840; 2002.540; 0.04543; 0.00409
1078.09;   41.620;   22.840; 1946.540; 0.05871; 0.00529
1078.63;   -4.780;  -33.660; 1925.340; 0.09159; 0.00826
1079.18;   12.920;  -25.660; 1902.340; 0.12444; 0.01122
1079.72;   59.620;    8.540; 1872.140; 0.16664; 0.01504
1080.27;   -3.480;  -28.260; 1833.740; 0.08218; 0.00742
1080.81;    4.320;  -27.660; 1806.540; 0.10737; 0.00970
1081.36;  -23.280;  -49.360; 1759.940; 0.08908; 0.00805
1081.90;   79.020;   47.640; 1773.640; 0.10853; 0.00981
1082.44;   64.720;   23.340; 1742.540; 0.14569; 0.01318
1082.99;   50.320;   14.540; 1720.040; 0.12742; 0.01153
1083.53;   24.120;  -15.760; 1669.840; 0.14428; 0.01307
1084.08;   42.620;   12.140; 1694.940; 0.11168; 0.01012
1084.62;   17.820;   11.540; 1650.140; 0.02342; 0.00212
1085.17;   42.220;   -6.960; 1644.640; 0.18423; 0.01671
1085.71;    8.320;  -16.460; 1604.940; 0.09429; 0.00856
1086.25;   28.020;   13.040; 1614.040; 0.05798; 0.00526
1086.80;   41.320;   10.940; 1558.740; 0.11975; 0.01088
1087.34;   20.820;    0.740; 1549.140; 0.07991; 0.00726
1087.89;    1.620;  -21.460; 1518.340; 0.09317; 0.00847
1088.43;   22.420;   12.440; 1515.840; 0.04081; 0.00371
1088.97;   33.020;    3.040; 1494.940; 0.12443; 0.01132
1089.52;  235.720;  167.440; 1492.140; 0.28758; 0.02619
1090.06;  109.720;   65.840; 1451.240; 0.18707; 0.01704
1090.61;   33.320;    6.040; 1435.740; 0.11856; 0.01081
1091.15;  206.020;  140.040; 1394.140; 0.29138; 0.02657
1091.69;   56.220;   17.840; 1365.740; 0.17199; 0.01569
1092.24;   36.520;    9.140; 1368.940; 0.12453; 0.01137
1092.78;   68.220;   28.540; 1337.940; 0.18400; 0.01681
1093.32;   32.320;   11.840; 1350.740; 0.09489; 0.00867
1093.87;   52.720;   16.840; 1327.440; 0.17024; 0.01556
1094.41;   16.420;  -11.260; 1272.140; 0.13304; 0.01217
1094.95;  189.620;  110.440; 1282.440; 0.38466; 0.03520
1095.50;  -15.680;  -27.860; 1250.140; 0.06053; 0.00554
1096.04;   61.720;   45.340; 1268.140; 0.08198; 0.00751
1096.58;  194.320;  134.540; 1217.440; 0.30365; 0.02783
1097.13;   12.720;  -25.860; 1182.740; 0.19829; 0.01818
1097.67;   91.520;   49.940; 1204.340; 0.21753; 0.01996
1098.21;   -3.580;  -16.960; 1162.040; 0.07086; 0.00650
1098.76;   15.920;   -2.160; 1142.840; 0.09715; 0.00892
1099.30;   13.520;  -14.060; 1130.140; 0.14970; 0.01375
1099.84;    3.020;  -25.760; 1116.240; 0.15886; 0.01460
1100.38;   58.920;   25.840; 1094.240; 0.18489; 0.01700

