
Integration time [ms]: 500.000
Averaging Nr. [scans]: 10
Smoothing Nr. [pixels]: 0
Data measured with spectrometer [name]: 1901096U1
Wave   ;Sample   ;Dark     ;Reference;Absolute Irradiance  ;Photon Counts
[nm]   ;[counts] ;[counts] ;[counts] ;[µWatt/cm?/nm]       ;[µMol/s/m?/nm]

 155.82;  226.252;  234.880;   69.357; 0.00000; 0.00000
 156.42;  256.955;  261.980;   98.706; 0.00000; 0.00000
 157.03;  241.155;  238.080;   92.018; 0.00000; 0.00000
 157.63;  216.555;  218.080;   78.786; 0.00000; 0.00000
 158.23;  247.955;  240.980;   94.680; 0.00000; 0.00000
 158.84;  244.657;  262.780;  119.574; 0.00000; 0.00000
 159.44;  239.354;  238.980;   82.550; 0.00000; 0.00000
 160.04;  256.353;  250.480;  102.110; 0.00000; 0.00000
 160.64;  322.454;  317.680;   93.044; 0.00000; 0.00000
 161.25;  266.656;  258.280;  112.923; 0.00000; 0.00000
 161.85;  303.455;  276.380;  109.378; 0.00000; 0.00000
 162.45;  252.753;  249.180;   90.607; 0.00000; 0.00000
 163.06;  273.154;  270.880;   94.943; 0.00000; 0.00000
 163.66;  280.156;  274.180;   96.745; 0.00000; 0.00000
 164.26;  246.251;  229.780;   70.019; 0.00000; 0.00000
 164.86;  239.552;  237.380;  112.245; 0.00000; 0.00000
 165.47;  262.826;  263.980;  144.771; 0.00000; 0.00000
 166.07;  259.425;  255.980;  171.417; 0.00000; 0.00000
 166.67;  258.424;  242.980;  157.886; 0.00000; 0.00000
 167.27;  262.425;  252.980;  165.443; 0.00000; 0.00000
 167.88;  269.724;  268.480;  176.084; 0.00000; 0.00000
 168.48;  315.622;  313.180;  149.416; 0.00000; 0.00000
 169.08;  286.823;  274.680;  149.165; 0.00000; 0.00000
 169.68;  284.527;  279.880;  196.226; 0.00000; 0.00000
 170.29;  308.222;  304.580;  174.114; 0.00000; 0.00000
 170.89;  287.224;  272.480;  182.177; 0.00000; 0.00000
 171.49;  305.924;  301.680;  158.870; 0.00000; 0.00000
 172.09;  266.224;  257.180;  197.793; 0.00000; 0.00000
 172.70;  268.321;  271.980;  178.950; 0.00000; 0.00000
 173.30;  359.522;  345.380;  192.313; 0.00000; 0.00000
 173.90;  242.720;  236.980;  149.290; 0.00000; 0.00000
 174.50;  395.421;  402.580;  169.250; 0.00000; 0.00000
 175.11;  336.222;  343.380;  178.397; 0.00000; 0.00000
 175.71;  233.625;  238.780;  163.326; 0.00000; 0.00000
 176.31;  232.624;  232.680;  157.407; 0.00000; 0.00000
 176.91;  261.222;  251.680;  166.476; 0.00000; 0.00000
 177.51;  259.821;  255.280;  169.037; 0.00000; 0.00000
 178.12;  346.321;  346.180;  189.172; 0.00000; 0.00000
 178.72;  315.223;  298.280;  188.859; 0.00000; 0.00000
 179.32;  314.522;  320.080;  182.185; 0.00000; 0.00000
 179.92;  256.622;  262.080;  182.480; 0.00000; 0.00000
 180.52;  405.525;  388.080;  194.824; 0.00000; 0.00000
 181.13;  287.620;  285.980;  169.191; 0.00000; 0.00000
 181.73;  258.523;  263.680;  204.825; 0.00000; 0.00000
 182.33;  279.120;  290.780;  191.492; 0.00000; 0.00000
 182.93;  259.920;  246.680;  210.121; 0.00000; 0.00000
 183.54;  204.918;  214.080;  146.515; 0.00000; 0.00000
 184.14;  244.923;  234.080;  159.832; 0.00000; 0.00000
 184.74;  335.723;  331.080;  211.228; 0.00000; 0.00000
 185.34;  244.525;  243.480;  232.734; 0.00427; 0.00007
 185.94;  288.020;  283.380;  205.003; 0.02296; 0.00036
 186.54;  262.523;  250.980;  234.146; 0.05176; 0.00081
 187.15;  228.821;  221.480;  218.473; 0.03538; 0.00055
 187.75;  362.626;  356.080;  238.667; 0.01974; 0.00031
 188.35;  331.420;  337.480;  236.604;-0.02383;-0.00038
 188.95;  229.624;  233.480;  223.885;-0.01264;-0.00020
 189.55;  217.721;  209.580;  204.335; 0.03095; 0.00049
 190.16;  303.321;  300.580;  250.453; 0.01059; 0.00017
 190.76;  223.519;  232.780;  231.976;-0.03292;-0.00052
 191.36;  295.620;  286.380;  258.608; 0.03185; 0.00051
 191.96;  253.523;  249.280;  282.334; 0.01144; 0.00018
 192.56;  235.820;  220.080;  277.413; 0.04470; 0.00072
 193.16;  270.419;  255.580;  299.568; 0.04572; 0.00074
 193.77;  310.417;  312.480;  305.671;-0.00749;-0.00012
 194.37;  228.422;  220.180;  293.691; 0.02169; 0.00035
 194.97;  206.020;  212.880;  303.214;-0.01760;-0.00029
 195.57;  225.324;  218.780;  323.385; 0.01229; 0.00020
 196.17;  294.017;  287.380;  329.855; 0.02436; 0.00040
 196.77;  220.720;  225.080;  362.624;-0.01066;-0.00018
 197.38;  231.720;  228.980;  385.309; 0.00642; 0.00011
 197.98;  315.318;  310.080;  391.422; 0.01415; 0.00023
 198.58;  248.323;  249.080;  441.930;-0.00154;-0.00003
 199.18;  216.222;  211.580;  429.902; 0.00933; 0.00016
 199.78;  345.317;  345.580;  456.870;-0.00091;-0.00002
 200.38;  259.221;  251.680;  499.846; 0.01585; 0.00027
 200.98;  204.522;  179.580;  502.986; 0.04393; 0.00074
 201.59;  257.228;  255.380;  611.653; 0.00236; 0.00004
 202.19;  217.125;  222.480;  605.646;-0.00774;-0.00013
 202.79;  235.621;  225.180;  587.448; 0.02034; 0.00034
 203.39;  206.022;  185.380;  644.186; 0.03879; 0.00066
 203.99;  246.023;  247.380;  740.949;-0.00207;-0.00004
 204.59;  247.422;  253.080;  733.510;-0.00944;-0.00016
 205.19;  233.320;  224.180;  796.291; 0.02085; 0.00036
 205.79;  255.223;  235.780;  825.824; 0.03212; 0.00055
 206.40;  215.922;  219.280;  875.395;-0.00570;-0.00010
 207.00;  255.023;  234.480;  907.041; 0.03236; 0.00056
 207.60;  226.122;  226.580;  928.798;-0.00075;-0.00001
 208.20;  222.125;  225.980; 1019.353;-0.00489;-0.00009
 208.80;  225.426;  201.180; 1029.973; 0.03035; 0.00053
 209.40;  223.528;  226.280; 1141.880;-0.00290;-0.00005
 210.00;  225.222;  225.280; 1124.417;-0.00008; 0.00000
 210.60;  235.324;  218.680; 1170.175; 0.02134; 0.00038
 211.20;  307.023;  316.780; 1254.557;-0.01258;-0.00022
 211.81;  173.923;  171.280; 1237.652; 0.00337; 0.00006
 212.41;  200.627;  203.680; 1355.714;-0.00298;-0.00005
 213.01;  222.329;  219.780; 1400.416; 0.00210; 0.00004
 213.61;  209.425;  213.680; 1399.523;-0.00435;-0.00008
 214.21;  191.426;  191.880; 1517.477;-0.00042;-0.00001
 214.81;  207.027;  194.280; 1599.136; 0.01045; 0.00019
 215.41;  241.626;  238.880; 1677.966; 0.00260; 0.00005
 216.01;  269.826;  267.280; 1747.260; 0.00225; 0.00004
 216.61;  238.720;  248.080; 1794.906;-0.01269;-0.00023
 217.21;  244.628;  241.180; 1900.484; 0.00237; 0.00004
 217.81;  194.329;  187.980; 1966.536; 0.00372; 0.00007
 218.41;  215.628;  218.080; 2070.058;-0.00164;-0.00003
 219.02;  200.130;  204.280; 2134.247;-0.00229;-0.00004
 219.62;  239.226;  225.280; 2229.697; 0.00923; 0.00017
 220.22;  242.226;  235.580; 2296.000; 0.00408; 0.00008
 220.82;  203.028;  193.280; 2396.090; 0.00501; 0.00009
 221.42;  219.929;  205.380; 2534.516; 0.00686; 0.00013
 222.02;  189.328;  190.380; 2602.876;-0.00050;-0.00001
 222.62;  176.728;  171.780; 2644.667; 0.00231; 0.00004
 223.22;  204.828;  188.780; 2747.058; 0.00826; 0.00015
 223.82;  199.628;  192.380; 2851.961; 0.00347; 0.00006
 224.42;  252.427;  229.180; 2979.536; 0.01034; 0.00019
 225.02;  231.828;  219.080; 3070.857; 0.00522; 0.00010
 225.62;  201.031;  197.480; 3154.212; 0.00116; 0.00002
 226.22;  214.029;  236.080; 3251.918;-0.00824;-0.00016
 226.82;  221.628;  211.880; 3374.683; 0.00401; 0.00008
 227.42;  208.325;  196.280; 3459.925; 0.00614; 0.00012
 228.02;  229.425;  237.380; 3557.146;-0.00357;-0.00007
 228.62;  176.129;  171.880; 3720.333; 0.00153; 0.00003
 229.22;  259.730;  265.680; 3822.360;-0.00186;-0.00004
 229.82;  198.422;  194.480; 3910.707; 0.00228; 0.00004
 230.43;  214.129;  211.980; 4060.498; 0.00071; 0.00001
 231.03;  211.225;  208.180; 4165.853; 0.00120; 0.00002
 231.63;  198.225;  211.680; 4299.932;-0.00528;-0.00010
 232.23;  202.226;  194.780; 4439.690; 0.00267; 0.00005
 232.83;  206.027;  193.580; 4570.914; 0.00406; 0.00008
 233.43;  228.327;  233.780; 4679.232;-0.00171;-0.00003
 234.03;  196.027;  192.080; 4822.739; 0.00113; 0.00002
 234.63;  173.029;  160.580; 4963.625; 0.00309; 0.00006
 235.23;  210.629;  216.080; 5087.302;-0.00135;-0.00003
 235.83;  198.026;  182.380; 5158.578; 0.00467; 0.00009
 236.43;  234.623;  227.680; 5238.061; 0.00239; 0.00005
 237.03;  208.626;  182.280; 5367.267; 0.00760; 0.00015
 237.63;  344.227;  315.280; 5476.106; 0.00735; 0.00015
 238.23;  189.529;  186.180; 5557.100; 0.00074; 0.00001
 238.83;  202.929;  184.180; 5587.205; 0.00420; 0.00008
 239.43;  207.525;  214.180; 5669.235;-0.00186;-0.00004
 240.03;  222.728;  218.680; 5684.486; 0.00093; 0.00002
 240.63;  197.231;  176.880; 5805.009; 0.00371; 0.00007
 241.23;  260.926;  234.780; 5803.599; 0.00632; 0.00013
 241.83;  197.428;  200.480; 5757.283;-0.00067;-0.00001
 242.43;  220.727;  220.280; 5830.420; 0.00011; 0.00000
 243.03;  188.129;  189.980; 5665.396;-0.00037;-0.00001
 243.63;  197.527;  182.380; 5769.037; 0.00311; 0.00006
 244.23;  183.425;  177.380; 5796.819; 0.00174; 0.00004
 244.83;  163.728;  168.680; 5806.754;-0.00106;-0.00002
 245.43;  228.024;  217.080; 5823.208; 0.00278; 0.00006
 246.02;  409.326;  410.880; 5800.188;-0.00035;-0.00001
 246.62;  200.825;  200.380; 5811.522; 0.00012; 0.00000
 247.22;  173.729;  175.580; 5818.533;-0.00034;-0.00001
 247.82;  219.529;  214.880; 5941.708; 0.00083; 0.00002
 248.42;  311.427;  327.780; 5924.620;-0.00334;-0.00007
 249.02;  230.128;  222.580; 5931.763; 0.00144; 0.00003
 249.62;  185.530;  180.580; 5978.860; 0.00082; 0.00002
 250.22;  274.329;  250.480; 6035.626; 0.00411; 0.00009
 250.82;  238.127;  234.780; 6063.934; 0.00066; 0.00001
 251.42;  221.030;  218.180; 6166.982; 0.00043; 0.00001
 252.02;  165.027;  155.180; 6146.432; 0.00182; 0.00004
 252.62;  201.632;  198.580; 6316.257; 0.00040; 0.00001
 253.22;  278.726;  269.380; 6362.600; 0.00174; 0.00004
 253.82;  183.230;  179.380; 6451.444; 0.00065; 0.00001
 254.42;  184.328;  187.080; 6595.581;-0.00049;-0.00001
 255.02;  216.230;  202.880; 6709.758; 0.00180; 0.00004
 255.62;  161.429;  166.680; 6866.335;-0.00076;-0.00002
 256.22;  335.326;  342.280; 6997.500;-0.00127;-0.00003
 256.82;  179.226;  185.180; 7151.784;-0.00101;-0.00002
 257.41;  174.430;  174.580; 7263.866;-0.00002; 0.00000
 258.01;  183.528;  188.780; 7368.656;-0.00078;-0.00002
 258.61;  231.829;  231.580; 7537.434; 0.00003; 0.00000
 259.21;  178.227;  166.380; 7585.914; 0.00177; 0.00004
 259.81;  233.427;  248.980; 7627.906;-0.00235;-0.00005
 260.41;  345.227;  332.580; 7729.113; 0.00181; 0.00004
 261.01;  147.131;  157.480; 7804.604;-0.00112;-0.00002
 261.61;  189.531;  191.080; 7874.186;-0.00016; 0.00000
 262.21;  182.526;  181.480; 7809.864; 0.00015; 0.00000
 262.81;  156.526;  149.580; 7883.093; 0.00091; 0.00002
 263.41;  175.630;  192.380; 7851.264;-0.00177;-0.00004
 264.00;  452.331;  447.880; 7910.396; 0.00042; 0.00001
 264.60;  213.429;  204.680; 7832.833; 0.00089; 0.00002
 265.20;  170.029;  162.380; 7811.800; 0.00083; 0.00002
 265.80;  179.628;  180.680; 7807.390;-0.00011; 0.00000
 266.40;  197.426;  200.280; 7758.985;-0.00036;-0.00001
 267.00;  257.728;  234.480; 7744.586; 0.00243; 0.00005
 267.60;  220.030;  223.580; 7713.844;-0.00032;-0.00001
 268.20;  247.429;  234.380; 7658.534; 0.00107; 0.00002
 268.80;  146.929;  167.980; 7613.828;-0.00174;-0.00004
 269.39;  246.524;  229.880; 7639.694; 0.00193; 0.00004
 269.99;  164.128;  169.380; 7545.848;-0.00044;-0.00001
 270.59;  204.928;  194.780; 7557.185; 0.00082; 0.00002
 271.19;  171.327;  173.580; 7463.747;-0.00017; 0.00000
 271.79;  220.527;  206.080; 7430.716; 0.00106; 0.00002
 272.39;  188.527;  170.880; 7390.417; 0.00116; 0.00003
 272.99;  182.424;  170.880; 7366.798; 0.00087; 0.00002
 273.59;  170.324;  159.280; 7394.867; 0.00078; 0.00002
 274.18;  203.425;  192.780; 7372.027; 0.00064; 0.00001
 274.78;  191.023;  187.580; 7463.749; 0.00021; 0.00000
 275.38;  460.219;  450.180; 7541.064; 0.00070; 0.00002
 275.98;  179.117;  178.580; 7555.049; 0.00004; 0.00000
 276.58;  189.015;  181.980; 7679.967; 0.00047; 0.00001
 277.18;  173.717;  167.080; 7761.887; 0.00032; 0.00001
 277.78;  208.813;  198.580; 7885.197; 0.00055; 0.00001
 278.37;  168.909;  158.880; 8094.415; 0.00052; 0.00001
 278.97;  193.612;  185.480; 8236.837; 0.00032; 0.00001
 279.57;  182.507;  183.880; 8401.201;-0.00006; 0.00000
 280.17;  185.406;  166.980; 8585.075; 0.00070; 0.00002
 280.77;  192.304;  186.180; 8739.990; 0.00023; 0.00001
 281.37;  195.704;  182.780; 8921.174; 0.00045; 0.00001
 281.96;  204.697;  201.380; 9108.466; 0.00013; 0.00000
 282.56;  210.999;  204.980; 9270.274; 0.00021; 0.00000
 283.16;  212.996;  203.880; 9355.810; 0.00034; 0.00001
 283.76;  164.696;  169.680; 9505.805;-0.00016; 0.00000
 284.36;  355.293;  346.380; 9628.166; 0.00032; 0.00001
 284.95;  185.087;  179.580; 9802.511; 0.00024; 0.00001
 285.55;  200.090;  201.980; 9973.057;-0.00007; 0.00000
 286.15;  196.593;  195.180;10153.664; 0.00005; 0.00000
 286.75;  238.086;  229.080;10252.877; 0.00038; 0.00001
 287.35;  189.188;  180.180;10345.749; 0.00036; 0.00001
 287.94;  157.890;  150.180;10437.340; 0.00029; 0.00001
 288.54;  175.989;  170.180;10563.308; 0.00023; 0.00001
 289.14;  167.389;  155.480;10625.296; 0.00051; 0.00001
 289.74;  167.090;  176.480;10698.339;-0.00041;-0.00001
 290.34;  185.195;  164.780;10794.693; 0.00071; 0.00002
 290.93;  155.594;  162.080;10889.406;-0.00026;-0.00001
 291.53;  191.795;  169.180;10882.075; 0.00088; 0.00002
 292.13;  149.594;  150.280;10986.727;-0.00003; 0.00000
 292.73;  225.991;  214.180;10956.902; 0.00058; 0.00001
 293.33;  141.796;  151.380;10919.612;-0.00041;-0.00001
 293.92;  150.797;  156.580;10969.773;-0.00025;-0.00001
 294.52;  143.699;  139.580;10992.032; 0.00017; 0.00000
 295.12;  182.797;  167.280;10934.672; 0.00070; 0.00002
 295.72;  162.997;  150.480;10815.554; 0.00059; 0.00001
 296.31;  225.200;  217.180;10904.618; 0.00034; 0.00001
 296.91;  244.695;  231.780;10752.392; 0.00069; 0.00002
 297.51;  184.599;  192.480;10565.563;-0.00036;-0.00001
 298.11;  430.199;  429.780;10514.872; 0.00002; 0.00000
 298.70;  173.697;  164.180;10425.745; 0.00043; 0.00001
 299.30;  154.788;  145.080;10340.539; 0.00057; 0.00001
 299.90;  183.085;  173.580;10399.297; 0.00053; 0.00001
 300.50;  232.590;  227.680;10320.936; 0.00025; 0.00001
 301.09;  167.789;  157.280;10404.916; 0.00065; 0.00002
 301.69;  179.593;  161.180;10530.383; 0.00096; 0.00002
 302.29;  161.690;  158.780;10625.238; 0.00019; 0.00000
 302.89;  158.091;  167.180;10712.996;-0.00058;-0.00001
 303.48;  213.489;  214.480;10883.577;-0.00008; 0.00000
 304.08;  173.296;  154.680;11034.496; 0.00143; 0.00004
 304.68;  178.192;  190.580;11199.933;-0.00117;-0.00003
 305.28;  161.492;  171.980;11331.138;-0.00105;-0.00003
 305.87;  143.496;  143.380;11557.216; 0.00001; 0.00000
 306.47;  154.294;  148.680;11629.007; 0.00055; 0.00001
 307.07;  177.897;  175.980;11817.946; 0.00017; 0.00000
 307.67;  204.000;  190.680;12043.183; 0.00109; 0.00003
 308.26;  166.897;  163.780;12135.263; 0.00028; 0.00001
 308.86;  192.091;  182.180;12308.970; 0.00107; 0.00003
 309.46;  159.397;  163.480;12516.957;-0.00036;-0.00001
 310.05;  155.993;  169.580;12737.271;-0.00142;-0.00004
 310.65;  197.501;  183.080;12857.363; 0.00120; 0.00003
 311.25;  223.296;  208.880;12935.298; 0.00136; 0.00004
 311.85;  197.493;  193.480;13145.596; 0.00041; 0.00001
 312.44;  175.694;  160.880;13347.612; 0.00147; 0.00004
 313.04;  174.996;  160.080;13485.708; 0.00141; 0.00004
 313.64;  176.593;  163.580;13620.981; 0.00139; 0.00004
 314.23;  203.695;  201.080;13715.076; 0.00025; 0.00001
 314.83;  479.994;  486.080;13936.025;-0.00064;-0.00002
 315.43;  164.191;  152.180;13967.090; 0.00134; 0.00004
 316.02;  208.398;  215.380;14040.930;-0.00063;-0.00002
 316.62;  182.995;  189.580;14125.363;-0.00065;-0.00002
 317.22;  199.496;  196.580;14245.032; 0.00027; 0.00001
 317.81;  157.397;  142.680;14233.762; 0.00140; 0.00004
 318.41;  185.498;  177.180;14263.897; 0.00078; 0.00002
 319.01;  179.093;  156.180;14427.401; 0.00234; 0.00006
 319.60;  204.194;  194.780;14388.747; 0.00091; 0.00002
 320.20;  142.095;  139.480;14258.389; 0.00026; 0.00001
 320.80;  185.794;  178.980;14334.539; 0.00070; 0.00002
 321.39;  171.895;  179.780;14417.251;-0.00081;-0.00002
 321.99;  161.294;  144.880;14396.221; 0.00172; 0.00005
 322.59;  236.497;  230.080;14327.565; 0.00062; 0.00002
 323.18;  173.596;  179.280;14288.034;-0.00057;-0.00002
 323.78;  190.698;  187.580;14312.623; 0.00029; 0.00001
 324.38;  157.795;  150.680;14236.162; 0.00072; 0.00002
 324.97;  163.198;  155.380;14253.394; 0.00075; 0.00002
 325.57;  204.295;  202.080;14167.559; 0.00023; 0.00001
 326.17;  210.999;  194.080;14160.352; 0.00157; 0.00004
 326.76;  183.996;  184.180;14123.806;-0.00002; 0.00000
 327.36;  206.697;  224.280;14073.860;-0.00163;-0.00004
 327.95;  159.898;  146.080;13930.123; 0.00120; 0.00003
 328.55;  165.298;  146.680;13852.519; 0.00161; 0.00004
 329.15;  422.794;  421.380;13731.407; 0.00013; 0.00000
 329.74;  155.502;  148.180;13598.370; 0.00058; 0.00002
 330.34;  173.000;  163.680;13577.890; 0.00071; 0.00002
 330.94;  206.692;  202.580;13380.550; 0.00036; 0.00001
 331.53;  167.194;  160.680;13220.110; 0.00055; 0.00002
 332.13;  150.698;  134.480;13089.027; 0.00135; 0.00004
 332.72;  306.498;  317.980;12940.220;-0.00100;-0.00003
 333.32;  169.900;  155.580;12869.816; 0.00126; 0.00004
 333.92;  149.402;  138.080;12706.579; 0.00094; 0.00003
 334.51;  146.401;  138.480;12609.342; 0.00069; 0.00002
 335.11;  195.100;  178.080;12467.899; 0.00150; 0.00004
 335.70;  157.403;  149.980;12368.236; 0.00060; 0.00002
 336.30;  214.008;  203.580;12332.478; 0.00075; 0.00002
 336.90;  204.904;  178.180;12252.377; 0.00204; 0.00006
 337.49;  158.603;  146.480;12294.456; 0.00090; 0.00003
 338.09;  199.304;  166.380;12364.864; 0.00238; 0.00007
 338.68;  232.909;  207.380;12237.490; 0.00165; 0.00005
 339.28;  189.708;  174.680;12302.356; 0.00098; 0.00003
 339.88;  227.710;  189.280;12390.342; 0.00245; 0.00007
 340.47;  239.709;  197.280;12416.990; 0.00274; 0.00008
 341.07;  225.608;  196.480;12531.981; 0.00185; 0.00005
 341.66;  174.210;  138.380;12623.655; 0.00218; 0.00006
 342.26;  233.008;  167.980;12797.052; 0.00405; 0.00012
 342.85;  215.109;  166.980;12937.109; 0.00277; 0.00008
 343.45;  220.613;  146.880;12984.911; 0.00394; 0.00011
 344.05;  285.205;  188.080;13082.432; 0.00527; 0.00015
 344.64;  276.794;  184.180;13194.041; 0.00471; 0.00014
 345.24;  269.774;  145.480;13265.813; 0.00615; 0.00018
 345.83;  333.861;  212.280;13312.418; 0.00606; 0.00018
 346.43;  300.971;  144.380;13468.470; 0.00662; 0.00019
 347.02;  401.973;  198.680;13572.576; 0.00836; 0.00024
 347.62;  327.577;  108.180;13379.367; 0.00870; 0.00025
 348.21;  445.074;  175.380;13533.522; 0.01076; 0.00031
 348.81;  534.475;  210.780;13381.845; 0.01247; 0.00036
 349.41;  562.478;  195.980;13369.417; 0.01390; 0.00041
 350.00;  609.277;  165.980;13470.448; 0.01743; 0.00051
 350.60;  679.476;  159.580;13588.306; 0.02046; 0.00060
 351.19;  808.375;  178.480;13759.078; 0.02413; 0.00071
 351.79;  901.278;  174.480;13840.276; 0.02563; 0.00075
 352.38;  992.378;  133.080;13938.916; 0.02894; 0.00085
 352.98; 1139.870;  172.780;13979.839; 0.03343; 0.00099
 353.57; 1278.664;  164.780;14008.884; 0.03709; 0.00110
 354.17; 1364.966;  119.480;14067.448; 0.03906; 0.00116
 354.76; 1575.960;  206.380;14095.882; 0.04179; 0.00124
 355.36; 1619.753;  148.180;14156.360; 0.04420; 0.00131
 355.95; 1744.544;  119.380;14214.335; 0.04745; 0.00141
 356.55; 1879.036;  124.380;14229.371; 0.05003; 0.00149
 357.14; 1999.027;  162.980;14325.365; 0.05004; 0.00149
 357.74; 2089.320;  163.480;14177.550; 0.05147; 0.00154
 358.33; 2145.208;  163.680;14059.315; 0.05238; 0.00157
 358.93; 2116.294;  151.080;13923.782; 0.05242; 0.00157
 359.52; 2127.587;  127.480;13798.344; 0.05113; 0.00154
 360.12; 2154.776;  154.680;13719.972; 0.05101; 0.00154
 360.71; 2144.476;  149.580;13707.554; 0.04963; 0.00150
 361.31; 2150.672;  193.880;13621.268; 0.04781; 0.00144
 361.90; 2304.867;  397.180;13507.738; 0.04712; 0.00143
 362.50; 2024.661;  163.880;13484.098; 0.04711; 0.00143
 363.09; 1960.563;  123.480;13341.582; 0.04691; 0.00142
 363.69; 1909.771;  136.280;13261.120; 0.04630; 0.00141
 364.28; 1884.081;  140.980;13269.773; 0.04631; 0.00141
 364.88; 1988.585;  232.780;13351.165; 0.04877; 0.00149
 365.47; 1906.494;  175.780;13342.885; 0.04693; 0.00143
 366.06; 1861.102;  143.580;13257.149; 0.04734; 0.00145
 366.66; 1879.006;  157.580;13117.317; 0.04840; 0.00148
 367.25; 1872.808;  180.680;13006.099; 0.04757; 0.00146
 367.85; 1841.312;  137.880;12998.112; 0.04647; 0.00143
 368.44; 1937.106;  228.680;12809.111; 0.04685; 0.00144
 369.04; 1870.199;  173.780;12658.104; 0.04689; 0.00145
 369.63; 1856.295;  174.480;12538.629; 0.04599; 0.00142
 370.23; 1800.490;  144.080;12507.819; 0.04582; 0.00142
 370.82; 1764.384;  154.780;12275.616; 0.04620; 0.00143
 371.41; 1703.387;  143.580;12167.683; 0.04494; 0.00140
 372.01; 1644.486;  159.180;12115.712; 0.04368; 0.00136
 372.60; 1532.489;  140.680;11975.456; 0.04206; 0.00131
 373.20; 1538.596;  226.080;12039.964; 0.03878; 0.00121
 373.79; 1442.402;  184.980;11941.740; 0.03626; 0.00113
 374.39; 1316.699;  152.680;11902.018; 0.03400; 0.00106
 374.98; 1254.699;  148.780;11792.806; 0.03239; 0.00101
 375.57; 1172.597;  166.980;11721.304; 0.03013; 0.00095
 376.17; 1124.694;  161.680;11796.660; 0.02907; 0.00091
 376.76; 1038.297;  154.580;11721.704; 0.02678; 0.00084
 377.36;  931.397;  139.180;11727.335; 0.02406; 0.00076
 377.95;  900.599;  148.980;11721.412; 0.02251; 0.00071
 378.55;  842.699;  137.580;11711.712; 0.02127; 0.00067
 379.14;  778.604;  130.880;11709.428; 0.01934; 0.00061
 379.73;  703.993;  132.080;11636.354; 0.01773; 0.00056
 380.33;  696.297;  159.580;11703.912; 0.01632; 0.00052
 380.92;  673.795;  162.980;11668.144; 0.01570; 0.00050
 381.51;  626.900;  158.580;11686.070; 0.01419; 0.00045
 382.11;  520.200;  129.180;11643.046; 0.01189; 0.00038
 382.70;  549.596;  167.480;11603.363; 0.01181; 0.00038
 383.30;  493.598;  124.080;11590.348; 0.01131; 0.00036
 383.89;  502.995;  169.880;11709.427; 0.01019; 0.00033
 384.48;  445.094;  135.180;11665.995; 0.00948; 0.00030
 385.08;  450.396;  166.780;11854.352; 0.00864; 0.00028
 385.67;  383.697;  120.980;11824.527; 0.00783; 0.00025
 386.27;  393.197;  139.380;11982.236; 0.00755; 0.00024
 386.86;  370.694;  145.680;12038.498; 0.00674; 0.00022
 387.45;  349.397;  154.080;12123.205; 0.00576; 0.00019
 388.05;  391.099;  190.980;12277.087; 0.00579; 0.00019
 388.64;  381.600;  197.280;12483.044; 0.00532; 0.00017
 389.23;  361.598;  170.680;12506.880; 0.00546; 0.00018
 389.83;  297.196;  138.680;12733.854; 0.00452; 0.00015
 390.42;  328.196;  190.480;13005.489; 0.00385; 0.00013
 391.01;  278.702;  115.980;13122.046; 0.00447; 0.00015
 391.61;  280.196;  134.880;13136.770; 0.00402; 0.00013
 392.20;  286.595;  140.580;13389.848; 0.00399; 0.00013
 392.79;  272.397;  136.780;13482.314; 0.00365; 0.00012
 393.39;  311.395;  193.880;13714.141; 0.00314; 0.00010
 393.98;  239.598;  108.780;13887.473; 0.00344; 0.00011
 394.57;  285.092;  169.980;14119.877; 0.00304; 0.00010
 395.17;  292.699;  197.480;14342.017; 0.00244; 0.00008
 395.76;  290.594;  188.180;14398.170; 0.00265; 0.00009
 396.35;  238.698;  161.980;14723.368; 0.00193; 0.00006
 396.95;  251.997;  171.180;14851.736; 0.00202; 0.00007
 397.54;  244.698;  164.780;15011.260; 0.00197; 0.00007
 398.13;  331.399;  257.380;15237.327; 0.00181; 0.00006
 398.73;  234.299;  167.780;15364.602; 0.00160; 0.00005
 399.32;  216.094;  149.880;15491.473; 0.00159; 0.00005
 399.91;  219.498;  132.980;15600.753; 0.00205; 0.00007
 400.50;  230.296;  165.580;15697.381; 0.00153; 0.00005
 401.10;  236.100;  192.680;15828.054; 0.00101; 0.00003
 401.69;  211.098;  141.080;15854.460; 0.00162; 0.00005
 402.28;  214.998;  146.080;15897.175; 0.00158; 0.00005
 402.88;  226.098;  166.380;15970.475; 0.00136; 0.00005
 403.47;  216.398;  158.080;16008.786; 0.00133; 0.00004
 404.06;  241.498;  195.380;16056.750; 0.00105; 0.00004
 404.66;  227.598;  170.880;16006.671; 0.00129; 0.00004
 405.25;  234.794;  180.780;16161.003; 0.00122; 0.00004
 405.84;  197.301;  133.680;16197.799; 0.00142; 0.00005
 406.43;  189.399;  129.280;16343.805; 0.00134; 0.00005
 407.03;  252.000;  184.280;16413.145; 0.00150; 0.00005
 407.62;  195.092;  137.480;16282.092; 0.00129; 0.00004
 408.21;  304.299;  251.080;16281.894; 0.00119; 0.00004
 408.80;  181.796;  132.080;16313.383; 0.00110; 0.00004
 409.40;  162.000;  133.680;16243.061; 0.00063; 0.00002
 409.99;  213.298;  178.580;16360.174; 0.00077; 0.00003
 410.58;  172.902;  111.080;16266.062; 0.00136; 0.00005
 411.17;  173.502;  123.680;16281.023; 0.00110; 0.00004
 411.77;  212.697;  168.680;16300.337; 0.00098; 0.00003
 412.36;  175.599;  142.580;16211.225; 0.00074; 0.00003
 412.95;  183.702;  129.880;16312.261; 0.00119; 0.00004
 413.54;  184.203;  155.280;16200.710; 0.00064; 0.00002
 414.14;  208.203;  153.080;16218.084; 0.00123; 0.00004
 414.73;  150.000;   99.380;15995.170; 0.00114; 0.00004
 415.32;  181.503;  142.180;16069.668; 0.00088; 0.00003
 415.91;  158.006;  124.580;15987.828; 0.00075; 0.00003
 416.50;  167.904;  131.680;15943.356; 0.00082; 0.00003
 417.10;  167.102;  128.980;15912.947; 0.00087; 0.00003
 417.69;  260.904;  218.380;15903.020; 0.00098; 0.00003
 418.28;  196.404;  175.380;15902.022; 0.00048; 0.00002
 418.87;  193.206;  158.980;15922.014; 0.00079; 0.00003
 419.47;  192.404;  164.680;15950.140; 0.00064; 0.00002
 420.06;  231.009;  220.380;15879.978; 0.00025; 0.00001
 420.65;  214.604;  184.280;15894.348; 0.00071; 0.00003
 421.24;  179.709;  140.480;15789.352; 0.00093; 0.00003
 421.83;  161.208;  113.280;15610.418; 0.00114; 0.00004
 422.43;  155.907;  130.280;15405.994; 0.00062; 0.00002
 423.02;  194.605;  172.980;15476.169; 0.00052; 0.00002
 423.61;  224.313;  192.280;15425.441; 0.00078; 0.00003
 424.20;  177.311;  148.280;15117.051; 0.00071; 0.00003
 424.79;  196.813;  173.980;15050.664; 0.00056; 0.00002
 425.38;  172.510;  133.780;14884.408; 0.00096; 0.00003
 425.98;  159.610;  132.680;14787.487; 0.00068; 0.00002
 426.57;  247.714;  213.880;14780.592; 0.00085; 0.00003
 427.16;  268.015;  247.780;14687.646; 0.00051; 0.00002
 427.75;  152.713;  125.780;14634.427; 0.00069; 0.00002
 428.34;  136.115;  106.980;14516.915; 0.00076; 0.00003
 428.93;  198.619;  162.180;14525.937; 0.00094; 0.00003
 429.53;  194.723;  158.780;14399.900; 0.00094; 0.00003
 430.12;  163.019;  126.080;14222.417; 0.00098; 0.00004
 430.71;  143.117;  109.880;14024.941; 0.00089; 0.00003
 431.30;  234.914;  216.580;14018.987; 0.00049; 0.00002
 431.89;  193.118;  185.680;13882.793; 0.00020; 0.00001
 432.48;  210.523;  196.180;13707.379; 0.00039; 0.00001
 433.08;  168.819;  147.080;13447.029; 0.00060; 0.00002
 433.67;  165.422;  151.580;13403.231; 0.00038; 0.00001
 434.26;  188.923;  161.880;13265.896; 0.00075; 0.00003
 434.85;  205.224;  184.980;13088.457; 0.00057; 0.00002
 435.44;  200.927;  180.680;12961.570; 0.00057; 0.00002
 436.03;  196.528;  174.980;12988.141; 0.00061; 0.00002
 436.62;  333.523;  329.080;12866.499; 0.00013; 0.00000
 437.21;  180.228;  154.680;12843.026; 0.00072; 0.00003
 437.81;  218.229;  187.480;12774.470; 0.00087; 0.00003
 438.40;  210.026;  193.780;12805.753; 0.00046; 0.00002
 438.99;  217.331;  202.680;12760.762; 0.00042; 0.00002
 439.58;  155.129;  125.180;12757.487; 0.00086; 0.00003
 440.17;  178.931;  142.680;12745.864; 0.00104; 0.00004
 440.76;  206.329;  169.980;12749.184; 0.00104; 0.00004
 441.35;  156.632;  137.380;12701.024; 0.00055; 0.00002
 441.94;  182.229;  165.080;12804.873; 0.00049; 0.00002
 442.53;  143.230;  135.880;12713.802; 0.00021; 0.00001
 443.12;  212.532;  184.980;12880.022; 0.00079; 0.00003
 443.72;  138.734;  111.380;12883.889; 0.00078; 0.00003
 444.31;  157.037;  129.480;12914.632; 0.00078; 0.00003
 444.90;  224.133;  211.080;13017.940; 0.00037; 0.00001
 445.49;  147.834;  121.580;12977.005; 0.00074; 0.00003
 446.08;  182.133;  159.780;13065.358; 0.00063; 0.00002
 446.67;  178.332;  172.380;13047.204; 0.00017; 0.00001
 447.26;  146.643;  121.780;13128.922; 0.00070; 0.00003
 447.85;  137.038;  118.980;13136.170; 0.00051; 0.00002
 448.44;  137.741;  117.980;13156.836; 0.00055; 0.00002
 449.03;  148.836;  127.180;13212.075; 0.00060; 0.00002
 449.62;  152.533;  140.980;13212.835; 0.00032; 0.00001
 450.21;  182.142;  171.680;13232.144; 0.00029; 0.00001
 450.80;  182.538;  159.180;13210.071; 0.00064; 0.00002
 451.39;  131.338;  110.580;13280.288; 0.00056; 0.00002
 451.98;  158.143;  132.880;13361.025; 0.00068; 0.00003
 452.57;  148.142;  121.580;13352.967; 0.00071; 0.00003
 453.17;  140.739;  116.980;13390.926; 0.00063; 0.00002
 453.76;  146.845;  127.780;13449.411; 0.00050; 0.00002
 454.35;  142.143;  145.480;13449.195;-0.00009; 0.00000
 454.94;  135.544;  111.880;13547.948; 0.00062; 0.00002
 455.53;  141.943;  122.180;13647.621; 0.00051; 0.00002
 456.12;  132.146;  134.680;13639.739;-0.00007; 0.00000
 456.71;  180.349;  150.980;13729.472; 0.00075; 0.00003
 457.30;  155.449;  136.680;13869.368; 0.00047; 0.00002
 457.89;  144.648;  136.180;13859.720; 0.00021; 0.00001
 458.48;  114.547;  105.680;13992.283; 0.00022; 0.00001
 459.07;  167.950;  143.580;14014.042; 0.00061; 0.00002
 459.66;  136.848;  113.580;14017.355; 0.00058; 0.00002
 460.25;  123.849;   89.880;14043.774; 0.00084; 0.00003
 460.84;  164.549;  156.080;14122.487; 0.00021; 0.00001
 461.43;  120.650;  108.480;14239.908; 0.00030; 0.00001
 462.02;  192.449;  165.080;14250.976; 0.00067; 0.00003
 462.61;  125.350;  101.880;14354.648; 0.00057; 0.00002
 463.20;  140.852;  132.980;14434.730; 0.00019; 0.00001
 463.79;  165.151;  152.880;14540.469; 0.00030; 0.00001
 464.38;  115.850;   99.480;14582.535; 0.00039; 0.00002
 464.97;  158.651;  141.280;14564.374; 0.00041; 0.00002
 465.56;  105.452;   86.080;14552.106; 0.00046; 0.00002
 466.15;  106.059;   83.880;14775.149; 0.00052; 0.00002
 466.74;  177.759;  158.780;14771.829; 0.00044; 0.00002
 467.32;  123.054;   91.780;14624.322; 0.00073; 0.00003
 467.91;  175.655;  146.180;14685.370; 0.00069; 0.00003
 468.50;  124.155;   99.680;14662.474; 0.00057; 0.00002
 469.09;  122.458;  119.280;14603.087; 0.00007; 0.00000
 469.68;  212.454;  183.380;14576.221; 0.00067; 0.00003
 470.27;  176.960;  158.180;14710.860; 0.00043; 0.00002
 470.86;  136.562;  117.580;14779.790; 0.00043; 0.00002
 471.45;  139.860;  107.380;14796.673; 0.00074; 0.00003
 472.04;  110.560;  100.980;14893.567; 0.00022; 0.00001
 472.63;  278.061;  277.880;14949.444; 0.00000; 0.00000
 473.22;  146.565;  128.480;15081.421; 0.00041; 0.00002
 473.81;  111.665;  103.580;15204.309; 0.00018; 0.00001
 474.40;  161.064;  160.380;15323.040; 0.00002; 0.00000
 474.99;  149.465;  132.280;15371.985; 0.00039; 0.00002
 475.58;  199.263;  150.880;15472.797; 0.00108; 0.00004
 476.17;  113.668;   84.780;15381.247; 0.00065; 0.00003
 476.76;  114.767;   98.480;15500.493; 0.00036; 0.00001
 477.34;  143.367;  123.280;15690.220; 0.00045; 0.00002
 477.93;  122.465;   95.980;15655.120; 0.00059; 0.00002
 478.52;  135.768;  108.680;15804.937; 0.00060; 0.00002
 479.11;   88.267;   82.880;15723.306; 0.00012; 0.00000
 479.70;  209.367;  196.380;15824.401; 0.00029; 0.00001
 480.29;   75.466;   50.380;15854.772; 0.00056; 0.00002
 480.88;  121.264;  110.180;15970.172; 0.00025; 0.00001
 481.47;  143.067;  128.980;16240.510; 0.00031; 0.00001
 482.06;   96.667;   78.180;16277.097; 0.00041; 0.00002
 482.64;  107.664;   87.880;16369.672; 0.00044; 0.00002
 483.23;  102.264;   83.380;16600.365; 0.00042; 0.00002
 483.82;  101.366;   84.380;16701.951; 0.00038; 0.00002
 484.41;  112.469;  100.480;16720.385; 0.00027; 0.00001
 485.00;   92.670;   61.280;16684.320; 0.00070; 0.00003
 485.59;  113.566;   89.180;16757.570; 0.00055; 0.00002
 486.18;  125.567;  102.180;16565.195; 0.00053; 0.00002
 486.77;  125.768;  106.880;16641.256; 0.00043; 0.00002
 487.35;  132.471;  125.380;16516.766; 0.00016; 0.00001
 487.94;  130.973;  129.280;16342.365; 0.00004; 0.00000
 488.53;  192.466;  163.580;16328.276; 0.00066; 0.00003
 489.12;  118.867;   93.280;16137.914; 0.00059; 0.00002
 489.71;  118.972;   99.080;16040.510; 0.00045; 0.00002
 490.30;  115.567;  103.680;15823.296; 0.00027; 0.00001
 490.89;  107.272;   81.880;15770.310; 0.00059; 0.00002
 491.47;  208.869;  195.680;15636.203; 0.00031; 0.00001
 492.06;  173.372;  171.480;15767.440; 0.00004; 0.00000
 492.65;   90.567;   71.280;15651.517; 0.00045; 0.00002
 493.24;  118.170;  112.980;15745.321; 0.00012; 0.00001
 493.83;  106.671;   93.380;15737.289; 0.00031; 0.00001
 494.42;   93.567;   67.880;15680.605; 0.00061; 0.00003
 495.00;  124.676;  115.680;15772.610; 0.00021; 0.00001
 495.59;  147.073;  125.780;15555.489; 0.00051; 0.00002
 496.18;  102.070;  102.080;15587.835; 0.00000; 0.00000
 496.77;   75.574;   83.280;15499.329;-0.00019;-0.00001
 497.36;  159.872;  139.680;15408.615; 0.00050; 0.00002
 497.94;  153.471;  130.980;15405.174; 0.00055; 0.00002
 498.53;   86.677;   79.280;15336.545; 0.00018; 0.00001
 499.12;   77.579;   68.780;15247.135; 0.00022; 0.00001
 499.71;  133.971;  106.880;15223.276; 0.00068; 0.00003
 500.30;  115.173;  116.080;15162.171;-0.00002; 0.00000
 500.88;  142.079;  117.780;15165.755; 0.00062; 0.00003
 501.47;  103.377;   80.980;15064.069; 0.00057; 0.00002
 502.06;  129.278;  104.180;15084.289; 0.00065; 0.00003
 502.65;  100.477;   94.480;15053.546; 0.00016; 0.00001
 503.23;   98.174;   83.380;14986.635; 0.00038; 0.00002
 503.82;   98.277;   93.880;15037.966; 0.00011; 0.00000
 504.41;   92.380;   74.280;14906.905; 0.00047; 0.00002
 505.00;  215.478;  193.680;14855.493; 0.00057; 0.00002
 505.58;  146.176;  116.880;14830.521; 0.00078; 0.00003
 506.17;  169.980;  129.380;14742.188; 0.00108; 0.00005
 506.76;  132.576;  108.380;14670.589; 0.00065; 0.00003
 507.35;  159.280;  134.680;14583.180; 0.00066; 0.00003
 507.93;  142.382;   96.780;14526.590; 0.00124; 0.00005
 508.52;   83.281;   71.080;14549.052; 0.00033; 0.00001
 509.11;  106.178;   94.680;14402.097; 0.00031; 0.00001
 509.70;  101.581;   74.680;14285.923; 0.00074; 0.00003
 510.28;  127.281;  106.180;14326.917; 0.00058; 0.00002
 510.87;  118.283;   82.180;14263.308; 0.00100; 0.00004
 511.46;  100.382;   83.280;14128.893; 0.00048; 0.00002
 512.05;  118.979;   79.980;14064.229; 0.00110; 0.00005
 512.63;  128.386;  104.180;14044.876; 0.00068; 0.00003
 513.22;  101.783;   80.080;13960.816; 0.00062; 0.00003
 513.81;  105.789;   90.880;13930.912; 0.00043; 0.00002
 514.40;  123.687;   86.580;13850.705; 0.00107; 0.00005
 514.98;  145.587;  106.780;13811.717; 0.00113; 0.00005
 515.57;  149.883;  119.580;13759.513; 0.00088; 0.00004
 516.16;  282.085;  233.680;13665.995; 0.00143; 0.00006
 516.74;  112.885;   75.980;13650.798; 0.00109; 0.00005
 517.33;  178.782;  130.480;13631.582; 0.00144; 0.00006
 517.92;  149.785;  102.380;13572.029; 0.00141; 0.00006
 518.50;  110.989;   49.880;13526.084; 0.00184; 0.00008
 519.09;  166.285;   97.580;13522.206; 0.00206; 0.00009
 519.68;  150.586;   76.580;13582.164; 0.00223; 0.00010
 520.26;  158.786;   76.880;13514.477; 0.00248; 0.00011
 520.85;  164.486;   77.880;13509.653; 0.00263; 0.00011
 521.44;  188.385;  110.780;13416.109; 0.00238; 0.00010
 522.02;  153.584;   65.680;13449.657; 0.00270; 0.00012
 522.61;  195.289;   76.580;13481.719; 0.00365; 0.00016
 523.20;  241.886;  126.780;13529.651; 0.00354; 0.00015
 523.78;  175.386;   47.580;13421.774; 0.00395; 0.00017
 524.37;  230.687;   95.480;13489.089; 0.00419; 0.00018
 524.96;  209.989;   65.880;13546.479; 0.00447; 0.00020
 525.54;  265.188;   96.280;13559.268; 0.00525; 0.00023
 526.13;  272.488;  119.280;13613.739; 0.00477; 0.00021
 526.72;  237.087;   50.980;13636.987; 0.00581; 0.00026
 527.30;  297.192;   89.280;13736.029; 0.00649; 0.00029
 527.89;  321.691;   97.780;13772.479; 0.00700; 0.00031
 528.48;  315.789;   78.580;13717.585; 0.00743; 0.00033
 529.06;  358.691;  116.180;13839.567; 0.00759; 0.00034
 529.65;  390.993;  102.880;13879.060; 0.00902; 0.00040
 530.23;  408.996;  106.180;13985.299; 0.00949; 0.00042
 530.82;  434.589;  110.780;14006.492; 0.01018; 0.00045
 531.41;  437.190;  111.980;13952.847; 0.01027; 0.00046
 531.99;  522.191;  167.780;14189.484; 0.01115; 0.00050
 532.58;  448.693;   79.680;14202.188; 0.01165; 0.00052
 533.17;  913.294;  500.480;14394.606; 0.01296; 0.00058
 533.75;  547.091;  104.380;14400.594; 0.01390; 0.00062
 534.34;  537.491;   70.480;14487.405; 0.01469; 0.00066
 534.92;  634.892;  132.280;14675.321; 0.01574; 0.00070
 535.51;  629.292;   90.580;14802.540; 0.01682; 0.00075
 536.10;  633.791;   73.280;14892.283; 0.01756; 0.00079
 536.68;  647.490;   55.980;14930.339; 0.01846; 0.00083
 537.27;  717.294;   77.780;15110.231; 0.01994; 0.00090
 537.85;  741.591;   90.780;15302.512; 0.02012; 0.00090
 538.44;  767.895;   74.980;15447.575; 0.02133; 0.00096
 539.02;  797.292;   66.080;15526.634; 0.02254; 0.00102
 539.61;  847.593;   75.180;15661.866; 0.02362; 0.00107
 540.20;  926.295;  101.080;15878.364; 0.02514; 0.00113
 540.78;  963.093;  109.580;16158.702; 0.02579; 0.00117
 541.37;  956.997;   59.280;16286.580; 0.02698; 0.00122
 541.95; 1056.796;  122.580;16484.824; 0.02796; 0.00127
 542.54; 1046.397;   87.580;16728.355; 0.02840; 0.00129
 543.12; 1116.293;  120.880;16867.094; 0.02927; 0.00133
 543.71; 1151.194;  110.480;17189.740; 0.03033; 0.00138
 544.29; 1149.893;   88.980;17314.779; 0.03069; 0.00140
 544.88; 1205.293;  102.280;17689.258; 0.03156; 0.00144
 545.47; 1174.592;   44.980;17727.537; 0.03224; 0.00147
 546.05; 1261.996;   99.780;17966.822; 0.03290; 0.00150
 546.64; 1531.194;  319.080;18134.611; 0.03420; 0.00156
 547.22; 1298.097;   81.880;18293.980; 0.03403; 0.00156
 547.81; 1378.898;  127.880;18506.514; 0.03468; 0.00159
 548.39; 1369.696;   89.280;18651.521; 0.03547; 0.00163
 548.98; 1408.595;  108.080;18741.889; 0.03604; 0.00165
 549.56; 1444.896;   97.180;18939.928; 0.03704; 0.00170
 550.15; 1405.095;   56.880;19057.387; 0.03705; 0.00170
 550.73; 1439.300;   89.380;19266.816; 0.03700; 0.00170
 551.32; 1456.900;   70.680;19436.779; 0.03785; 0.00174
 551.90; 1438.095;   70.380;19450.693; 0.03738; 0.00172
 552.49; 1476.699;   96.280;19831.463; 0.03750; 0.00173
 553.07; 1521.097;  116.780;19986.041; 0.03817; 0.00176
 553.66; 1512.497;  103.380;20108.471; 0.03813; 0.00176
 554.24; 1596.501;  229.780;20174.721; 0.03719; 0.00172
 554.83; 1515.798;   98.780;20293.715; 0.03835; 0.00178
 555.41; 1488.799;   94.680;20431.230; 0.03768; 0.00175
 556.00; 1505.398;  114.280;20531.824; 0.03746; 0.00174
 556.58; 1481.302;   94.380;20630.889; 0.03741; 0.00174
 557.17; 1466.801;  103.880;20893.254; 0.03664; 0.00171
 557.75; 1435.704;   71.280;21027.377; 0.03668; 0.00171
 558.33; 1430.900;   64.980;21327.117; 0.03641; 0.00170
 558.92; 1466.804;   89.080;21511.662; 0.03664; 0.00171
 559.50; 1430.201;   58.880;21679.539; 0.03635; 0.00170
 560.09; 1443.601;   74.980;21966.859; 0.03615; 0.00169
 560.67; 1445.001;  119.580;22094.262; 0.03499; 0.00164
 561.26; 1694.801;  394.280;22325.426; 0.03418; 0.00160
 561.84; 1427.002;  121.280;22537.285; 0.03430; 0.00161
 562.43; 1357.905;   88.180;22665.506; 0.03319; 0.00156
 563.01; 1365.900;   85.680;22804.908; 0.03357; 0.00158
 563.60; 1332.201;   79.980;22987.145; 0.03275; 0.00154
 564.18; 1278.901;   29.980;22954.326; 0.03286; 0.00155
 564.76; 1335.302;  107.380;23225.584; 0.03228; 0.00152
 565.35; 1232.503;   19.180;23472.633; 0.03175; 0.00150
 565.93; 1282.703;  104.780;23797.533; 0.03080; 0.00146
 566.52; 1267.702;   75.880;24374.377; 0.03100; 0.00147
 567.10; 1197.704;   54.580;24673.195; 0.02985; 0.00141
 567.68; 1184.800;   46.280;25084.010; 0.02964; 0.00141
 568.27; 1156.802;   29.780;25516.410; 0.02939; 0.00140
 568.85; 1257.403;  144.180;26141.744; 0.02887; 0.00137
 569.44; 1140.604;   53.080;26641.191; 0.02826; 0.00135
 570.02; 1093.302;   26.880;27187.600; 0.02761; 0.00132
 570.60; 1137.004;   70.280;27742.281; 0.02754; 0.00131
 571.19; 1090.502;   82.680;28157.010; 0.02592; 0.00124
 571.77; 1153.701;  128.680;28428.947; 0.02642; 0.00126
 572.36; 1048.201;   36.880;28979.928; 0.02597; 0.00124
 572.94; 1049.603;   77.480;29391.047; 0.02492; 0.00119
 573.52; 1025.704;   37.980;29856.078; 0.02529; 0.00121
 574.11;  955.904;   35.280;30210.297; 0.02348; 0.00113
 574.69;  984.502;   42.380;30610.469; 0.02404; 0.00115
 575.27;  971.402;   48.480;31068.201; 0.02342; 0.00113
 575.86;  956.403;   55.080;31324.652; 0.02291; 0.00110
 576.44;  930.704;   48.180;31821.682; 0.02235; 0.00108
 577.03;  927.900;   44.480;32242.576; 0.02236; 0.00108
 577.61;  882.300;   50.180;32332.604; 0.02111; 0.00102
 578.19;  872.203;   32.080;32663.738; 0.02126; 0.00103
 578.78;  859.103;   38.680;33150.430; 0.02075; 0.00100
 579.36;  849.505;   17.980;33498.246; 0.02097; 0.00102
 579.94;  866.100;   75.480;33838.488; 0.01989; 0.00096
 580.53;  850.204;   55.980;33925.402; 0.01994; 0.00097
 581.11;  864.003;   80.580;33902.137; 0.01959; 0.00095
 581.69;  871.602;  105.280;33934.109; 0.01912; 0.00093
 582.28;  792.103;   44.680;34024.719; 0.01867; 0.00091
 582.86;  762.404;   33.180;34404.578; 0.01818; 0.00089
 583.44;  803.903;   90.180;34290.453; 0.01785; 0.00087
 584.02;  746.202;   37.680;34502.574; 0.01763; 0.00086
 584.61;  800.701;   76.080;34367.449; 0.01803; 0.00088
 585.19;  782.905;  110.680;34147.840; 0.01677; 0.00082
 585.77;  759.203;   80.480;34324.949; 0.01694; 0.00083
 586.36;  712.700;   52.980;34220.977; 0.01649; 0.00081
 586.94;  729.405;   48.880;34264.648; 0.01707; 0.00084
 587.52;  683.001;   26.980;34169.328; 0.01643; 0.00081
 588.11;  689.404;   56.380;34027.176; 0.01596; 0.00078
 588.69;  744.601;  119.280;34133.223; 0.01579; 0.00078
 589.27;  651.304;   27.080;34017.098; 0.01582; 0.00078
 589.85;  637.603;   37.080;34200.453; 0.01520; 0.00075
 590.44;  635.404;   37.780;34417.695; 0.01512; 0.00075
 591.02;  637.604;   54.580;34525.262; 0.01484; 0.00073
 591.60;  609.701;   59.880;34488.723; 0.01401; 0.00069
 592.18;  651.904;   73.280;34247.359; 0.01488; 0.00074
 592.77;  630.999;   77.080;34253.250; 0.01429; 0.00071
 593.35;  586.205;   18.780;34408.547; 0.01468; 0.00073
 593.93;  551.605;   15.080;34700.426; 0.01385; 0.00069
 594.51;  558.603;   43.280;34792.813; 0.01341; 0.00067
 595.10;  524.403;    5.780;35006.313; 0.01352; 0.00067
 595.68;  556.705;   51.480;35184.211; 0.01323; 0.00066
 596.26;  523.603;   20.980;35202.832; 0.01319; 0.00066
 596.84;  492.801;   10.680;35400.758; 0.01271; 0.00063
 597.43;  533.201;   44.980;35554.852; 0.01292; 0.00064
 598.01;  518.500;   24.780;35705.520; 0.01311; 0.00066
 598.59;  491.905;   28.080;35872.508; 0.01232; 0.00062
 599.17;  505.100;   28.780;35825.816; 0.01273; 0.00064
 599.76;  473.403;    9.680;35690.133; 0.01244; 0.00062
 600.34;  448.699;   14.180;35831.438; 0.01170; 0.00059
 600.92;  524.601;   57.680;35801.262; 0.01263; 0.00063
 601.50;  435.698;    9.480;35980.527; 0.01154; 0.00058
 602.08;  531.200;   87.580;35747.195; 0.01210; 0.00061
 602.67;  510.499;   78.380;35853.664; 0.01182; 0.00060
 603.25;  421.504;    6.380;35959.473; 0.01137; 0.00057
 603.83;  427.404;   28.180;35792.375; 0.01100; 0.00056
 604.41;  387.002;   -4.120;35914.496; 0.01081; 0.00055
 604.99;  447.601;   71.980;36049.531; 0.01042; 0.00053
 605.58;  383.898;   10.580;35814.113; 0.01048; 0.00053
 606.16;  404.001;   37.780;35771.234; 0.01033; 0.00052
 606.74;  394.399;   42.880;35656.973; 0.00997; 0.00051
 607.32;  362.304;   13.480;35315.395; 0.00993; 0.00050
 607.90;  457.901;  111.480;35155.938; 0.00991; 0.00050
 608.48;  362.003;   21.080;34978.152; 0.00981; 0.00050
 609.07;  397.505;   56.380;34852.227; 0.00987; 0.00050
 609.65;  455.900;  150.180;34810.895; 0.00886; 0.00045
 610.23;  345.801;   18.980;34730.625; 0.00953; 0.00049
 610.81;  313.402;  -20.520;34496.090; 0.00978; 0.00050
 611.39;  292.600;  -12.320;34449.219; 0.00897; 0.00046
 611.97;  328.200;   42.080;34513.590; 0.00846; 0.00043
 612.55;  337.804;   33.380;34686.289; 0.00901; 0.00046
 613.14;  291.502;   -6.220;34700.883; 0.00885; 0.00045
 613.72;  264.999;  -38.020;34388.938; 0.00909; 0.00047
 614.30;  304.000;    2.480;34659.613; 0.00903; 0.00046
 614.88;  272.001;    7.680;34379.121; 0.00797; 0.00041
 615.46;  247.801;   14.980;34221.359; 0.00707; 0.00036
 616.04;  292.898;   52.580;33908.996; 0.00737; 0.00038
 616.62;  297.699;   44.880;33753.336; 0.00775; 0.00040
 617.20;  202.399;  -27.620;33597.859; 0.00709; 0.00037
 617.79;  308.999;   66.080;33727.773; 0.00748; 0.00039
 618.37;  219.604;  -13.120;33152.965; 0.00723; 0.00037
 618.95;  261.100;   37.780;33161.605; 0.00699; 0.00036
 619.53;  207.500;  -20.620;32939.707; 0.00717; 0.00037
 620.11;  228.701;   19.180;33004.430; 0.00662; 0.00034
 620.69;  204.799;    2.980;32959.859; 0.00641; 0.00033
 621.27;  223.502;   47.680;32839.289; 0.00563; 0.00029
 621.85;  205.700;   13.180;32868.613; 0.00616; 0.00032
 622.43;  187.499;  -10.020;32800.363; 0.00638; 0.00033
 623.01;  166.301;  -33.620;32647.637; 0.00650; 0.00034
 623.59;  155.997;  -38.220;32613.248; 0.00634; 0.00033
 624.17;  184.403;  -12.020;32739.422; 0.00643; 0.00034
 624.76;  157.898;  -18.820;32559.518; 0.00582; 0.00030
 625.34;  172.702;   10.380;32568.980; 0.00539; 0.00028
 625.92;  192.402;   32.380;32468.295; 0.00532; 0.00028
 626.50;  118.901;  -20.620;32290.064; 0.00467; 0.00024
 627.08;  165.503;   10.980;32135.045; 0.00520; 0.00027
 627.66;  149.602;    2.380;32275.604; 0.00496; 0.00026
 628.24;  154.297;   10.080;31949.385; 0.00490; 0.00026
 628.82;  137.798;  -11.220;31947.217; 0.00507; 0.00027
 629.40;  132.601;   -6.920;31771.922; 0.00477; 0.00025
 629.98;  105.699;  -41.520;31671.943; 0.00505; 0.00027
 630.56;  121.397;  -24.620;31838.951; 0.00502; 0.00026
 631.14;   98.801;  -32.120;31703.836; 0.00452; 0.00024
 631.72;   89.795;  -31.520;31831.287; 0.00420; 0.00022
 632.30;  108.198;  -32.020;31650.430; 0.00489; 0.00026
 632.88;   71.998;  -51.420;31645.305; 0.00432; 0.00023
 633.46;   80.201;  -37.120;31591.738; 0.00413; 0.00022
 634.04;  121.297;   15.380;31630.781; 0.00373; 0.00020
 634.62;  167.100;   43.480;31356.793; 0.00440; 0.00023
 635.20;  137.799;   29.080;31504.246; 0.00387; 0.00021
 635.78;   71.099;  -37.020;31576.955; 0.00388; 0.00021
 636.36;   65.399;  -40.120;31361.947; 0.00381; 0.00020
 636.94;  137.396;   38.880;31584.695; 0.00356; 0.00019
 637.52;   88.897;  -19.520;31522.854; 0.00394; 0.00021
 638.10;   43.797;  -47.320;31509.953; 0.00332; 0.00018
 638.68;   92.296;   -0.720;31569.314; 0.00340; 0.00018
 639.26;  101.301;    5.480;31614.053; 0.00352; 0.00019
 639.84;  166.500;   81.480;31718.201; 0.00313; 0.00017
 640.42;   55.499;  -40.720;31593.980; 0.00355; 0.00019
 641.00;   24.699;  -59.420;31727.652; 0.00310; 0.00017
 641.58;   55.800;  -33.920;31806.523; 0.00332; 0.00018
 642.16;   68.500;  -24.620;31878.197; 0.00345; 0.00018
 642.74;   67.700;  -10.920;32005.869; 0.00292; 0.00016
 643.32;   77.100;  -12.520;32003.541; 0.00334; 0.00018
 643.90;   68.900;   -7.720;31874.514; 0.00287; 0.00015
 644.47;   49.400;  -25.720;31967.086; 0.00283; 0.00015
 645.05;   37.500;  -34.320;32259.957; 0.00270; 0.00015
 645.63;   49.300;   -8.420;32513.930; 0.00217; 0.00012
 646.21;   62.701;   -3.920;32526.102; 0.00252; 0.00014
 646.79;   64.601;   -7.920;32665.674; 0.00274; 0.00015
 647.37;   30.801;  -35.620;32710.047; 0.00253; 0.00014
 647.95;   93.301;   20.280;32776.320; 0.00278; 0.00015
 648.53;   72.501;   10.280;32969.391; 0.00237; 0.00013
 649.11;   40.601;  -44.320;33030.465; 0.00326; 0.00018
 649.69;   17.501;  -56.120;33200.035; 0.00283; 0.00015
 650.27;   28.102;  -17.820;33310.707; 0.00177; 0.00010
 650.85;   15.102;  -30.320;33928.180; 0.00175; 0.00010
 651.42;   25.402;  -35.520;34418.152; 0.00236; 0.00013
 652.00;   -0.298;  -65.920;34969.625; 0.00253; 0.00014
 652.58;   40.602;  -30.920;35191.797; 0.00277; 0.00015
 653.16;   25.702;  -28.320;36135.668; 0.00210; 0.00011
 653.74;   53.902;    7.580;36648.441; 0.00180; 0.00010
 654.32;   62.003;   19.480;37165.813; 0.00165; 0.00009
 654.90;   36.103;  -18.220;37183.387; 0.00211; 0.00012
 655.48;   23.903;  -38.820;36928.457; 0.00245; 0.00013
 656.05;  -10.397;  -61.920;36971.133; 0.00201; 0.00011
 656.63;   11.503;  -40.620;37052.504; 0.00204; 0.00011
 657.21;   33.603;   -9.720;36949.676; 0.00170; 0.00009
 657.79;   84.303;   30.880;36851.949; 0.00209; 0.00011
 658.37;  209.503;  160.380;36239.219; 0.00193; 0.00011
 658.95;   17.204;  -20.720;35664.891; 0.00150; 0.00008
 659.53;   31.204;  -27.320;35354.664; 0.00230; 0.00013
 660.10;    7.804;  -43.120;34605.535; 0.00202; 0.00011
 660.68;   10.904;  -37.120;34863.910; 0.00190; 0.00011
 661.26;   50.604;    2.680;34861.480; 0.00190; 0.00011
 661.84;   37.304;   -7.020;34877.855; 0.00177; 0.00010
 662.42;   29.304;  -22.720;34987.824; 0.00207; 0.00011
 663.00;   90.105;   44.780;35223.297; 0.00181; 0.00010
 663.57;   30.605;  -12.520;35418.969; 0.00172; 0.00010
 664.15;  -12.395;  -52.720;35596.441; 0.00161; 0.00009
 664.73;   35.305;   -0.620;35720.516; 0.00144; 0.00008
 665.31;    7.205;  -39.720;35988.887; 0.00187; 0.00010
 665.89;    5.005;  -32.520;36325.660; 0.00149; 0.00008
 666.46;   -4.895;  -56.620;36449.031; 0.00206; 0.00011
 667.04;   -9.894;  -60.720;36462.703; 0.00202; 0.00011
 667.62;  -12.094;  -49.420;36704.078; 0.00148; 0.00008
 668.20;   41.706;   -2.920;36966.848; 0.00178; 0.00010
 668.78;    2.106;  -30.920;37359.223; 0.00131; 0.00007
 669.35;  248.306;  202.480;37649.895; 0.00181; 0.00010
 669.93;    7.006;  -30.020;37991.066; 0.00146; 0.00008
 670.51;  -28.194;  -68.320;38145.738; 0.00158; 0.00009
 671.09;    3.106;  -31.120;38209.109; 0.00134; 0.00008
 671.66;   51.107;   14.280;38580.684; 0.00144; 0.00008
 672.24;  -32.393;  -57.520;38670.656; 0.00098; 0.00006
 672.82;   17.407;  -13.220;39357.125; 0.00119; 0.00007
 673.40;   -9.393;  -49.920;39317.500; 0.00158; 0.00009
 673.97;    0.107;  -28.720;39754.371; 0.00113; 0.00006
 674.55;  -26.793;  -70.220;40012.742; 0.00170; 0.00010
 675.13;   20.507;  -19.120;40245.215; 0.00155; 0.00009
 675.71;  -32.192;  -63.420;40351.789; 0.00122; 0.00007
 676.28;   15.808;  -17.420;40497.563; 0.00130; 0.00007
 676.86;   17.808;  -20.520;40881.934; 0.00149; 0.00008
 677.44;   11.508;   -8.320;41243.406; 0.00077; 0.00004
 678.01;  -28.092;  -56.920;41566.777; 0.00111; 0.00006
 678.59;   -0.292;  -40.920;41856.949; 0.00156; 0.00009
 679.17;   35.508;    7.880;42126.723; 0.00106; 0.00006
 679.75;  -18.991;  -46.120;42527.496; 0.00103; 0.00006
 680.32;  -13.991;  -53.620;42799.965; 0.00150; 0.00009
 680.90;  -22.091;  -45.020;42983.039; 0.00087; 0.00005
 681.48;   -3.691;  -19.120;43704.012; 0.00058; 0.00003
 682.05;   42.109;   13.580;43718.582; 0.00107; 0.00006
 682.63;  -35.191;  -70.420;44042.055; 0.00133; 0.00008
 683.21;  -19.991;  -42.120;44531.629; 0.00083; 0.00005
 683.78;  -13.091;  -27.520;44788.398; 0.00054; 0.00003
 684.36;  -26.990;  -42.620;44854.273; 0.00058; 0.00003
 684.94;  -39.490;  -58.720;45147.445; 0.00072; 0.00004
 685.52;   -8.190;  -42.420;45579.016; 0.00128; 0.00007
 686.09;  -43.590;  -59.720;45676.688; 0.00060; 0.00003
 686.67;  -35.390;  -53.320;45566.063; 0.00067; 0.00004
 687.25;    3.310;  -29.520;45785.234; 0.00124; 0.00007
 687.82;  -19.790;  -55.520;45951.406; 0.00135; 0.00008
 688.40;   -7.789;  -25.620;46290.379; 0.00067; 0.00004
 688.97;  -26.489;  -45.720;46223.852; 0.00072; 0.00004
 689.55;  -35.589;  -43.320;46394.621; 0.00029; 0.00002
 690.13;   11.411;  -14.820;46349.594; 0.00099; 0.00006
 690.70;   43.011;   25.180;46622.266; 0.00067; 0.00004
 691.28;    3.811;   -6.120;46828.539; 0.00037; 0.00002
 691.86;    5.311;   -9.320;47108.512; 0.00055; 0.00003
 692.43;  -12.388;  -45.520;47368.785; 0.00125; 0.00007
 693.01;  -22.588;  -39.220;47615.758; 0.00063; 0.00004
 693.59;   56.112;   28.180;47501.730; 0.00106; 0.00006
 694.16;  -23.388;  -57.720;47670.801; 0.00130; 0.00008
 694.74;   -1.588;  -26.920;48102.574; 0.00096; 0.00006
 695.31;  -32.988;  -57.720;48244.445; 0.00094; 0.00005
 695.89;  -40.588;  -62.320;48315.719; 0.00083; 0.00005
 696.47;  -40.888;  -49.020;48414.789; 0.00031; 0.00002
 697.04;   86.713;   64.680;48520.863; 0.00084; 0.00005
 697.62;   13.013;   -4.120;48766.734; 0.00065; 0.00004
 698.19;   -6.587;  -18.220;48808.207; 0.00044; 0.00003
 698.77;   19.913;    5.380;49016.680; 0.00055; 0.00003
 699.34;   18.613;   -8.920;49065.551; 0.00105; 0.00006
 699.92;   12.613;  -17.420;49022.223; 0.00115; 0.00007
 700.50;  -31.887;  -42.520;49321.195; 0.00040; 0.00002
 701.07;  -28.486;  -34.420;49435.668; 0.00023; 0.00001
 701.65;    3.514;   -3.920;49736.641; 0.00028; 0.00002
 702.22;    0.314;   -9.320;49895.914; 0.00037; 0.00002
 702.80;   32.914;   13.880;49964.785; 0.00073; 0.00004
 703.37;    4.614;    2.380;50193.457; 0.00009; 0.00001
 703.95;   20.714;   -1.520;50479.629; 0.00085; 0.00005
 704.52;   -3.986;  -22.620;50941.102; 0.00071; 0.00004
 705.10;  -33.085;  -40.620;51257.973; 0.00029; 0.00002
 705.68;  -38.885;  -58.620;51457.348; 0.00075; 0.00004
 706.25;  -20.285;  -44.820;51790.617; 0.00094; 0.00006
 706.83;   -7.885;  -27.720;51709.492; 0.00076; 0.00004
 707.40;   32.715;   17.780;51802.363; 0.00057; 0.00003
 707.98;   -1.985;   -5.020;52174.938; 0.00012; 0.00001
 708.55;  -21.085;  -34.120;52212.406; 0.00050; 0.00003
 709.13;  -13.185;  -36.620;52351.980; 0.00090; 0.00005
 709.70;   24.816;    5.880;52634.453; 0.00073; 0.00004
 710.28;   -4.484;  -13.520;52829.727; 0.00035; 0.00002
 710.85;  -19.784;  -23.520;52866.598; 0.00014; 0.00001
 711.43;  -22.284;  -36.020;53221.270; 0.00052; 0.00003
 712.00;   53.116;   47.280;53035.141; 0.00022; 0.00001
 712.58;  -15.084;  -14.720;53267.813;-0.00001; 0.00000
 713.15;    8.116;   -8.020;53512.387; 0.00062; 0.00004
 713.73;  175.017;  152.380;53688.059; 0.00087; 0.00005
 714.30;   42.217;   -2.220;53973.031; 0.00171; 0.00010
 714.88;  -28.683;  -47.120;53874.602; 0.00071; 0.00004
 715.45;    9.117;    7.980;54110.676; 0.00004; 0.00000
 716.03;   -9.383;  -43.420;54504.449; 0.00131; 0.00008
 716.60;   -6.083;  -28.520;54248.020; 0.00087; 0.00005
 717.17;  -24.183;  -40.820;54334.492; 0.00065; 0.00004
 717.75;    4.418;  -20.720;54719.965; 0.00097; 0.00006
 718.32;   30.518;   22.780;54422.438; 0.00030; 0.00002
 718.90;  -20.982;  -34.320;54219.508; 0.00052; 0.00003
 719.47;   13.118;    5.380;54395.980; 0.00030; 0.00002
 720.05;   13.518;    5.880;54543.352; 0.00030; 0.00002
 720.62;   -8.582;  -13.320;54725.727; 0.00019; 0.00001
 721.20;   35.918;   27.480;54603.398; 0.00033; 0.00002
 721.77;   31.618;   14.480;54810.770; 0.00068; 0.00004
 722.34;   12.319;  -11.020;54964.742; 0.00092; 0.00006
 722.92;  -26.281;  -48.320;54886.816; 0.00088; 0.00005
 723.49;  -58.481;  -67.620;55052.387; 0.00036; 0.00002
 724.07;   12.819;   -0.220;55315.660; 0.00052; 0.00003
 724.64;  -11.281;  -38.320;55283.133; 0.00108; 0.00007
 725.21;    7.019;   -6.520;55661.605; 0.00054; 0.00003
 725.79;    8.319;   10.680;55881.777;-0.00009;-0.00001
 726.36;  -12.180;   -7.020;56024.648;-0.00021;-0.00001
 726.94;   -1.780;  -17.220;56315.820; 0.00062; 0.00004
 727.51;  -11.280;  -21.220;56807.895; 0.00040; 0.00002
 728.08;  -19.180;  -27.720;56846.766; 0.00034; 0.00002
 728.66;   -7.480;  -22.320;57255.438; 0.00059; 0.00004
 729.23;  -25.680;  -38.320;57826.512; 0.00050; 0.00003
 729.80;  -42.580;  -50.920;57723.582; 0.00033; 0.00002
 730.38;   11.321;    3.380;58136.555; 0.00032; 0.00002
 730.95;  -27.079;  -42.020;58380.727; 0.00060; 0.00004
 731.53;   22.721;   11.180;58386.398; 0.00046; 0.00003
 732.10;   21.221;    1.580;58444.473; 0.00079; 0.00005
 732.67;  -21.079;  -36.420;58673.445; 0.00062; 0.00004
 733.25;   39.521;   30.880;58645.816; 0.00035; 0.00002
 733.82;   -7.879;  -35.220;58935.488; 0.00110; 0.00007
 734.39;  -17.179;  -12.720;59133.359;-0.00018;-0.00001
 734.97;  -19.578;  -42.820;59207.234; 0.00094; 0.00006
 735.54;   57.322;   43.880;59275.906; 0.00054; 0.00003
 736.11;   -6.378;   -6.020;59227.777;-0.00001; 0.00000
 736.69;   63.622;   62.480;59661.551; 0.00005; 0.00000
 737.26;   -7.678;   -4.720;59761.621;-0.00012;-0.00001
 737.83;  -25.778;  -33.620;59570.594; 0.00032; 0.00002
 738.41;  -39.978;  -41.220;59493.766; 0.00005; 0.00000
 738.98;  -26.977;  -30.020;59380.039; 0.00012; 0.00001
 739.55;   27.323;   29.180;59269.609;-0.00008; 0.00000
 740.12;  -20.677;  -22.220;59404.781; 0.00006; 0.00000
 740.70;  -37.677;  -41.220;59095.055; 0.00015; 0.00001
 741.27;  -35.977;  -55.420;59266.027; 0.00080; 0.00005
 741.84;  -46.077;  -67.820;58997.301; 0.00090; 0.00006
 742.42;  -26.477;  -41.320;58935.172; 0.00061; 0.00004
 742.99;   44.324;   35.180;59108.945; 0.00038; 0.00002
 743.56;  -22.676;  -25.820;58782.516; 0.00013; 0.00001
 744.13;  -52.176;  -67.220;58925.988; 0.00063; 0.00004
 744.71;  171.624;  160.680;59260.961; 0.00046; 0.00003
 745.28;    6.924;  -14.520;59793.035; 0.00089; 0.00006
 745.85;  -24.676;  -43.820;60592.605; 0.00080; 0.00005
 746.42;  -13.776;  -19.920;60780.477; 0.00026; 0.00002
 747.00;   -7.976;   -9.820;60843.250; 0.00008; 0.00000
 747.57;  143.625;  136.780;61990.422; 0.00029; 0.00002
 748.14;   -9.675;  -17.220;62691.895; 0.00032; 0.00002
 748.71;   10.725;  -10.220;62852.969; 0.00089; 0.00006
 749.29;    5.925;    3.780;63047.340; 0.00009; 0.00001
 749.86;   10.925;   -1.120;62964.410; 0.00052; 0.00003
 750.43;  -17.275;  -29.120;62938.785; 0.00051; 0.00003
 751.00;  -33.275;  -34.220;63066.457; 0.00004; 0.00000
 751.58;  -17.974;  -40.620;62976.328; 0.00098; 0.00006
 752.15;  200.426;  184.280;62703.602; 0.00070; 0.00004
 752.72;  -39.174;  -50.720;62198.273; 0.00050; 0.00003
 753.29;  127.826;  109.680;61943.344; 0.00079; 0.00005
 753.86;  -47.174;  -46.120;61476.219;-0.00005; 0.00000
 754.44;   18.726;    1.280;60961.590; 0.00077; 0.00005
 755.01;  -30.274;  -38.820;61186.664; 0.00038; 0.00002
 755.58;  -27.973;  -37.320;61188.133; 0.00041; 0.00003
 756.15;   10.927;   -4.720;61287.309; 0.00070; 0.00004
 756.72;   37.627;   22.180;61241.980; 0.00069; 0.00004
 757.29;    1.027;  -12.220;61520.852; 0.00059; 0.00004
 757.87;  -31.273;  -48.220;61177.625; 0.00077; 0.00005
 758.44;  -29.373;  -30.320;61340.598; 0.00004; 0.00000
 759.01;    0.327;  -10.320;61652.770; 0.00048; 0.00003
 759.58;  -45.773;  -45.620;61150.539;-0.00001; 0.00000
 760.15;   37.428;   27.680;61244.414; 0.00045; 0.00003
 760.72;  -37.372;  -58.220;61275.887; 0.00096; 0.00006
 761.30;  -50.972;  -53.920;61491.059; 0.00014; 0.00001
 761.87;  -15.572;  -22.920;61700.730; 0.00034; 0.00002
 762.44;  -35.272;  -42.220;61389.602; 0.00032; 0.00002
 763.01;    7.928;   -0.620;61658.973; 0.00040; 0.00003
 763.58;    0.128;    7.480;61295.145;-0.00035;-0.00002
 764.15;   18.229;    4.980;61126.418; 0.00063; 0.00004
 764.72;   10.429;  -17.120;61225.391; 0.00131; 0.00008
 765.30;  -35.171;  -39.020;60961.664; 0.00018; 0.00001
 765.87;  -19.671;  -17.820;60665.336;-0.00009;-0.00001
 766.44;   58.529;   46.080;60815.809; 0.00060; 0.00004
 767.01;   49.429;   41.880;60390.180; 0.00037; 0.00002
 767.58;  -42.571;  -65.220;60249.254; 0.00110; 0.00007
 768.15;   32.530;   11.280;60025.125; 0.00104; 0.00007
 768.72;  -36.670;  -41.920;60071.797; 0.00026; 0.00002
 769.29;  -22.770;  -34.120;59639.867; 0.00056; 0.00004
 769.86;   25.930;    6.180;59723.941; 0.00098; 0.00006
 770.43;  -47.470;  -45.620;59481.012;-0.00009;-0.00001
 771.00;   -9.870;  -28.220;59468.387; 0.00092; 0.00006
 771.58;    1.230;  -14.820;59318.758; 0.00081; 0.00005
 772.15;  -40.970;  -40.720;58759.230;-0.00001; 0.00000
 772.72;   -7.069;  -12.320;58501.004; 0.00027; 0.00002
 773.29;  -11.169;  -14.620;58823.375; 0.00018; 0.00001
 773.86;  -50.069;  -46.420;58642.848;-0.00019;-0.00001
 774.43;   -6.069;  -22.920;58347.719; 0.00087; 0.00006
 775.00;    1.831;    0.080;58084.594; 0.00009; 0.00001
 775.57;   -4.169;   -1.020;58187.266;-0.00016;-0.00001
 776.14;    4.831;    1.680;57666.438; 0.00017; 0.00001
 776.71;   10.632;    9.080;57754.707; 0.00008; 0.00001
 777.28;  -19.768;  -17.620;57916.582;-0.00011;-0.00001
 777.85;  -22.968;  -22.620;57633.352;-0.00002; 0.00000
 778.42;   17.832;   -0.720;57701.227; 0.00099; 0.00006
 778.99;   34.632;   20.080;57689.199; 0.00078; 0.00005
 779.56;  -23.668;  -32.420;57683.570; 0.00047; 0.00003
 780.13;  -21.168;  -21.320;57522.441; 0.00001; 0.00000
 780.70;   15.133;   14.480;57127.715; 0.00004; 0.00000
 781.27;    3.033;   -7.920;57373.688; 0.00060; 0.00004
 781.84;  -32.067;  -44.620;57035.359; 0.00069; 0.00005
 782.41;   23.133;    5.980;57011.230; 0.00095; 0.00006
 782.98;  -17.067;  -15.820;56933.703;-0.00007; 0.00000
 783.55;   -0.567;   -0.820;56749.277; 0.00001; 0.00000
 784.12;    7.433;   -5.920;56663.449; 0.00075; 0.00005
 784.69;   14.633;   20.380;56571.520;-0.00033;-0.00002
 785.26;  -21.666;  -21.420;56155.594;-0.00001; 0.00000
 785.83;  -55.866;  -44.320;56493.266;-0.00066;-0.00004
 786.40;    5.834;    0.380;56145.137; 0.00031; 0.00002
 786.97;   31.734;   23.280;56138.109; 0.00049; 0.00003
 787.54;   38.734;   23.780;55947.883; 0.00087; 0.00006
 788.11;   19.634;   23.480;55781.355;-0.00023;-0.00001
 788.68;  -18.166;  -41.320;55704.926; 0.00137; 0.00009
 789.25;  -20.265;   -1.720;55524.000;-0.00110;-0.00007
 789.82;   15.935;   21.280;55552.473;-0.00032;-0.00002
 790.39;   22.735;   10.980;55451.941; 0.00071; 0.00005
 790.96;  -25.865;  -27.120;55430.816; 0.00008; 0.00001
 791.52;  -16.865;  -23.420;55217.586; 0.00040; 0.00003
 792.09;   43.835;   49.280;55290.262;-0.00033;-0.00002
 792.66;  -14.065;    1.480;54793.531;-0.00096;-0.00006
 793.23;   74.436;   81.680;54894.703;-0.00045;-0.00003
 793.80;   -1.964;    2.980;54770.176;-0.00031;-0.00002
 794.37;    0.036;    5.980;54456.648;-0.00037;-0.00002
 794.94;   -0.264;    1.380;54176.121;-0.00010;-0.00001
 795.51;   -7.164;  -11.420;54046.492; 0.00027; 0.00002
 796.08;   -5.764;  -23.520;53871.066; 0.00113; 0.00008
 796.65;   -9.564;  -28.620;53578.039; 0.00122; 0.00008
 797.21;   36.436;   32.080;53301.109; 0.00028; 0.00002
 797.78;   12.437;   12.880;52997.883;-0.00003; 0.00000
 798.35;   50.437;   47.680;52509.055; 0.00018; 0.00001
 798.92;  713.737;  723.280;52532.129;-0.00062;-0.00004
 799.49;  -19.863;  -19.820;52089.301; 0.00000; 0.00000
 800.06;   49.137;   49.780;51915.273;-0.00004; 0.00000
 800.63;   32.937;   28.980;51659.145; 0.00026; 0.00002
 801.20;   -0.963;  -10.520;51781.215; 0.00064; 0.00004
 801.76;    0.938;    2.780;51808.391;-0.00012;-0.00001
 802.33;   10.238;   10.280;51489.063; 0.00000; 0.00000
 802.90;   48.438;   38.780;51322.234; 0.00066; 0.00004
 803.47;   -0.862;   -3.120;51648.906; 0.00015; 0.00001
 804.04;   -2.062;  -18.020;51628.277; 0.00109; 0.00007
 804.61;   47.638;   41.980;51369.352; 0.00039; 0.00003
 805.17;  -11.262;  -10.120;51365.223;-0.00008;-0.00001
 805.74;    5.439;  -19.020;51444.695; 0.00168; 0.00011
 806.31;   10.339;   12.580;51037.367;-0.00016;-0.00001
 806.88;  -27.361;  -58.020;51096.238; 0.00213; 0.00014
 807.45;  -48.761;  -51.420;50997.012; 0.00019; 0.00001
 808.01;   -7.861;    3.080;50947.582;-0.00076;-0.00005
 808.58;   67.539;   69.380;50841.555;-0.00013;-0.00001
 809.15;   14.039;    5.280;50956.328; 0.00062; 0.00004
 809.72;   26.539;   26.980;50689.500;-0.00003; 0.00000
 810.29;   14.540;   15.680;50169.973;-0.00008;-0.00001
 810.85;    0.540;   -7.420;50108.844; 0.00057; 0.00004
 811.42;   -8.760;  -20.520;49628.117; 0.00086; 0.00006
 811.99;  -13.360;  -11.620;49373.191;-0.00013;-0.00001
 812.56;  -30.560;  -20.420;48973.660;-0.00076;-0.00005
 813.12;    9.540;   19.580;48451.535;-0.00076;-0.00005
 813.69;    9.040;    8.780;48256.105; 0.00002; 0.00000
 814.26;    2.341;   -4.920;47696.578; 0.00056; 0.00004
 814.83;  -12.959;   -5.620;47276.250;-0.00057;-0.00004
 815.39;  -39.059;  -35.820;47147.422;-0.00025;-0.00002
 815.96;    9.741;    2.180;46894.797; 0.00060; 0.00004
 816.53;   90.441;   93.980;46686.770;-0.00028;-0.00002
 817.10;  -17.659;  -25.520;46572.539; 0.00063; 0.00004
 817.66;  -43.659;  -51.720;46288.414; 0.00065; 0.00004
 818.23;  -64.358;  -54.120;46067.184;-0.00083;-0.00006
 818.80;  -36.158;  -41.920;45888.656; 0.00047; 0.00003
 819.37;   21.842;   15.980;45872.930; 0.00048; 0.00003
 819.93;  -30.858;  -28.120;45789.703;-0.00023;-0.00002
 820.50;  -48.258;  -51.820;45226.676; 0.00030; 0.00002
 821.07;  -40.558;  -53.320;45200.645; 0.00107; 0.00007
 821.63;  114.942;  126.580;44835.719;-0.00098;-0.00007
 822.20;  100.342;  103.180;44818.590;-0.00024;-0.00002
 822.77;   19.143;   15.380;44641.164; 0.00032; 0.00002
 823.34;  -10.757;  -19.020;44447.734; 0.00071; 0.00005
 823.90;  -32.757;  -24.820;44150.906;-0.00069;-0.00005
 824.47;   23.643;    1.180;44035.379; 0.00196; 0.00013
 825.04;  -15.957;  -26.120;43910.254; 0.00089; 0.00006
 825.60;   -5.357;   -2.020;43882.324;-0.00029;-0.00002
 826.17;  -47.257;  -45.320;43471.496;-0.00017;-0.00001
 826.74;  -30.756;  -37.620;43311.770; 0.00061; 0.00004
 827.30;  -36.556;  -33.320;42923.641;-0.00029;-0.00002
 827.87;   -4.756;  -13.720;42849.914; 0.00081; 0.00006
 828.43;   -3.656;  -13.620;42678.484; 0.00090; 0.00006
 829.00;  -37.456;  -39.920;42585.656; 0.00022; 0.00002
 829.57;    4.144;    9.780;42440.332;-0.00051;-0.00004
 830.13;  -49.256;  -64.420;42015.703; 0.00139; 0.00010
 830.70;  -34.855;  -36.220;41864.375; 0.00013; 0.00001
 831.27;   -9.155;  -10.920;41474.148; 0.00016; 0.00001
 831.83;  -54.555;  -53.020;41387.020;-0.00014;-0.00001
 832.40;   -6.755;   -3.120;41185.090;-0.00034;-0.00002
 832.97;   45.445;   36.180;41002.664; 0.00088; 0.00006
 833.53;  -29.255;  -31.820;41077.836; 0.00024; 0.00002
 834.10;  -26.855;  -23.020;40836.008;-0.00036;-0.00003
 834.66;  -30.455;  -32.720;40648.781; 0.00022; 0.00002
 835.23;   -6.954;  -24.220;40573.055; 0.00166; 0.00012
 835.80;  -42.154;  -45.720;40440.824; 0.00035; 0.00002
 836.36;  -35.354;  -32.520;40334.199;-0.00028;-0.00002
 836.93;    7.246;    5.080;40271.168; 0.00021; 0.00001
 837.49;   39.346;   46.180;40151.543;-0.00067;-0.00005
 838.06;   -7.854;   -1.320;40058.313;-0.00064;-0.00004
 838.62;  -10.754;  -15.420;39899.086; 0.00046; 0.00003
 839.19;   -6.053;  -10.420;39905.758; 0.00043; 0.00003
 839.76;  -16.453;  -16.220;39728.430;-0.00002; 0.00000
 840.32;  -43.753;  -47.720;39485.805; 0.00040; 0.00003
 840.89;  230.847;  230.680;39678.176; 0.00002; 0.00000
 841.45;   -8.753;  -17.720;39488.348; 0.00091; 0.00006
 842.02;  -39.953;  -53.020;39167.621; 0.00133; 0.00009
 842.58;  -44.053;  -42.920;39187.094;-0.00012;-0.00001
 843.15;   43.948;   31.980;39180.465; 0.00123; 0.00009
 843.71;  -23.552;  -36.020;39060.836; 0.00128; 0.00009
 844.28;  -70.352;  -69.720;38864.809;-0.00007; 0.00000
 844.84;   -2.352;   -5.420;38862.082; 0.00032; 0.00002
 845.41;  -21.652;  -23.220;38615.355; 0.00016; 0.00001
 845.97;  -34.552;  -48.920;38402.527; 0.00150; 0.00011
 846.54;  -37.752;  -28.820;38075.898;-0.00094;-0.00007
 847.10;  -12.352;  -12.020;38229.371;-0.00004; 0.00000
 847.67;  -43.551;  -49.720;37966.344; 0.00066; 0.00005
 848.23;  -18.151;  -22.620;38067.414; 0.00048; 0.00003
 848.80;   18.849;    5.280;38042.086; 0.00145; 0.00010
 849.36;  -22.451;  -29.820;37738.262; 0.00079; 0.00006
 849.93;  -30.751;  -23.620;37655.934;-0.00077;-0.00005
 850.49;  -20.151;  -14.320;37582.004;-0.00063;-0.00005
 851.06;  -43.851;  -49.220;37505.277; 0.00059; 0.00004
 851.62;  -19.250;  -20.320;37262.051; 0.00012; 0.00001
 852.19;  -30.050;  -26.820;37233.020;-0.00036;-0.00003
 852.75;  -44.050;  -46.220;37155.895; 0.00024; 0.00002
 853.32;  -22.150;  -14.820;37105.266;-0.00082;-0.00006
 853.88;  -23.750;  -18.620;36902.438;-0.00058;-0.00004
 854.45;   -3.650;   -2.820;37137.012;-0.00009;-0.00001
 855.01;   27.450;   22.480;37010.383; 0.00056; 0.00004
 855.57;  -22.549;  -23.820;36921.453; 0.00014; 0.00001
 856.14;  -35.449;  -52.320;36626.629; 0.00192; 0.00014
 856.70;  -33.949;  -36.520;36714.199; 0.00029; 0.00002
 857.27;  -25.549;  -29.720;36510.172; 0.00048; 0.00003
 857.83;  -82.149;  -69.920;36357.344;-0.00141;-0.00010
 858.40;   44.951;   25.080;36322.215; 0.00229; 0.00016
 858.96;  -27.649;  -30.120;36140.387; 0.00029; 0.00002
 859.52;   -8.149;    0.280;36171.262;-0.00098;-0.00007
 860.09;   -2.648;  -22.720;35921.734; 0.00234; 0.00017
 860.65;   -9.648;  -19.520;35764.504; 0.00116; 0.00008
 861.22;  -41.648;  -33.620;35727.977;-0.00095;-0.00007
 861.78;    7.252;    5.980;35638.051; 0.00015; 0.00001
 862.34;  -26.848;  -27.320;35649.922; 0.00006; 0.00000
 862.91;   -1.048;  -19.120;35682.594; 0.00214; 0.00015
 863.47;  130.352;  134.280;35224.566;-0.00047;-0.00003
 864.03;  -45.947;  -55.220;35401.738; 0.00111; 0.00008
 864.60;   10.253;   16.580;35293.512;-0.00076;-0.00005
 865.16;  -50.247;  -57.320;35132.184; 0.00086; 0.00006
 865.73;  -16.147;  -17.820;35111.855; 0.00020; 0.00001
 866.29;  125.453;  114.680;35043.527; 0.00131; 0.00010
 866.85;  -46.247;  -65.720;34721.301; 0.00239; 0.00017
 867.42;   -1.247;   -5.020;34616.371; 0.00046; 0.00003
 867.98;  -43.646;  -49.720;34527.145; 0.00075; 0.00005
 868.54;   12.554;   19.180;34441.617;-0.00082;-0.00006
 869.11;  -59.846;  -54.520;34366.289;-0.00066;-0.00005
 869.67;  -27.246;  -30.020;34234.863; 0.00035; 0.00003
 870.23;  -23.746;  -23.520;34228.133;-0.00003; 0.00000
 870.80;  -17.546;  -35.920;33878.707; 0.00234; 0.00017
 871.36;  -50.146;  -45.920;33584.379;-0.00054;-0.00004
 871.92;   50.154;   35.680;33514.352; 0.00188; 0.00014
 872.48;  -48.645;  -53.120;33352.023; 0.00058; 0.00004
 873.05;  -12.245;  -12.720;33107.297; 0.00006; 0.00000
 873.61;  -22.545;  -32.620;33006.969; 0.00133; 0.00010
 874.17;  -22.345;  -17.020;32897.238;-0.00071;-0.00005
 874.74;  -32.245;  -30.120;32747.340;-0.00028;-0.00002
 875.30;  -24.445;  -25.420;32872.738; 0.00013; 0.00001
 875.86;  -31.345;  -46.220;32962.238; 0.00198; 0.00015
 876.42;  -36.945;  -46.620;32924.941; 0.00129; 0.00009
 876.99;  -24.745;  -22.220;32876.039;-0.00034;-0.00002
 877.55;  -18.245;  -20.720;32981.738; 0.00033; 0.00002
 878.11;   -2.645;   -5.320;32831.238; 0.00036; 0.00003
 878.68;   -6.445;  -19.020;32682.740; 0.00170; 0.00012
 879.24;  -12.045;  -20.720;32631.039; 0.00118; 0.00009
 879.80;   11.255;   -4.320;32451.240; 0.00213; 0.00016
 880.36;   -8.745;  -20.520;32387.539; 0.00161; 0.00012
 880.92;  -10.245;    1.580;32337.240;-0.00162;-0.00012
 881.49;   -9.645;  -15.620;32357.840; 0.00082; 0.00006
 882.05;    1.755;  -17.620;32220.439; 0.00268; 0.00020
 882.61;   36.455;   29.780;32083.240; 0.00093; 0.00007
 883.17;  -11.745;  -16.720;32091.740; 0.00069; 0.00005
 883.74;   -5.745;   -5.620;32096.439;-0.00002; 0.00000
 884.30;  -40.145;  -36.120;31958.539;-0.00056;-0.00004
 884.86;   13.455;    6.480;32176.439; 0.00098; 0.00007
 885.42;  -18.745;  -18.920;32150.439; 0.00002; 0.00000
 885.98;  -46.545;  -58.620;32145.740; 0.00169; 0.00013
 886.55;   -9.545;  -28.420;32321.740; 0.00264; 0.00020
 887.11;   -2.245;    6.480;32423.840;-0.00122;-0.00009
 887.67;  -18.745;  -21.520;32421.840; 0.00039; 0.00003
 888.23;  -35.845;  -37.320;32570.340; 0.00021; 0.00002
 888.79;   14.055;   -3.420;32596.740; 0.00243; 0.00018
 889.35;  -35.545;  -37.520;32642.240; 0.00027; 0.00002
 889.92;   20.455;   13.180;32765.641; 0.00101; 0.00008
 890.48;  172.855;  172.580;32825.039; 0.00004; 0.00000
 891.04;  -33.545;  -22.920;32990.238;-0.00146;-0.00011
 891.60;  -43.845;  -43.920;33047.441; 0.00001; 0.00000
 892.16;    2.255;   -2.720;33188.941; 0.00068; 0.00005
 892.72;  -20.745;  -41.020;33357.141; 0.00277; 0.00021
 893.29;  -46.045;  -43.420;33494.738;-0.00036;-0.00003
 893.85;  -27.345;  -35.020;33665.738; 0.00104; 0.00008
 894.41;  -54.945;  -58.420;33926.641; 0.00047; 0.00004
 894.97;   17.855;   -2.520;33988.340; 0.00275; 0.00021
 895.53;  -28.945;  -37.420;34219.238; 0.00114; 0.00009
 896.09;  -12.145;  -28.720;34269.340; 0.00222; 0.00017
 896.65;  -28.845;  -20.620;34260.641;-0.00110;-0.00008
 897.21;   -1.845;   -0.120;34229.039;-0.00023;-0.00002
 897.77;  -10.845;  -23.020;34355.941; 0.00164; 0.00012
 898.34;  -24.045;  -23.620;34076.141;-0.00006; 0.00000
 898.90;    1.755;    2.980;33978.840;-0.00017;-0.00001
 899.46;  -11.345;   -5.720;34144.141;-0.00076;-0.00006
 900.02;   36.755;   33.180;33674.641; 0.00049; 0.00004
 900.58;   -1.145;   -7.420;33671.941; 0.00086; 0.00007
 901.14;   34.855;   36.380;33538.441;-0.00021;-0.00002
 901.70;    4.355;    2.480;33275.141; 0.00026; 0.00002
 902.26;  -56.345;  -51.020;33006.840;-0.00075;-0.00006
 902.82;   39.355;   31.680;33014.641; 0.00109; 0.00008
 903.38;  -13.645;  -30.320;32705.539; 0.00238; 0.00018
 903.94;    4.055;   -3.820;32674.340; 0.00113; 0.00009
 904.50;  -30.845;  -24.020;32451.039;-0.00099;-0.00007
 905.06;   -5.845;  -10.220;32229.039; 0.00064; 0.00005
 905.62;  -14.245;   -0.420;31916.439;-0.00203;-0.00015
 906.18;  -11.245;  -16.420;31805.539; 0.00076; 0.00006
 906.74;  -47.645;  -47.920;31546.039; 0.00004; 0.00000
 907.30;   37.655;   26.580;31284.939; 0.00166; 0.00013
 907.86;   10.155;    9.880;31088.240; 0.00004; 0.00000
 908.42;   35.155;   28.180;30928.240; 0.00106; 0.00008
 908.98;   29.055;   14.380;30791.240; 0.00225; 0.00017
 909.54;   17.255;   -6.020;30862.939; 0.00358; 0.00027
 910.10;   23.455;   39.180;30640.740;-0.00243;-0.00018
 910.66;   14.155;    6.880;30446.240; 0.00113; 0.00009
 911.22;    5.555;    6.980;30321.141;-0.00022;-0.00002
 911.78;  -46.345;  -51.620;29941.939; 0.00083; 0.00006
 912.34;   21.955;   17.080;29914.439; 0.00077; 0.00006
 912.90;   39.655;   39.480;29777.039; 0.00003; 0.00000
 913.46;  -30.445;  -41.420;29485.039; 0.00177; 0.00014
 914.02;  -11.245;  -33.820;29482.439; 0.00365; 0.00028
 914.58;   -9.845;  -30.720;29279.641; 0.00339; 0.00026
 915.14;  -18.345;  -31.220;29122.939; 0.00210; 0.00016
 915.70;    8.755;   -7.320;29026.539; 0.00265; 0.00020
 916.26;   21.155;   10.280;28810.641; 0.00180; 0.00014
 916.82;  -33.445;  -26.020;28635.939;-0.00123;-0.00009
 917.38;   43.755;   17.780;28403.039; 0.00435; 0.00033
 917.94;  136.455;  128.880;28214.240; 0.00128; 0.00010
 918.50;  -22.845;  -28.920;28052.641; 0.00103; 0.00008
 919.06;    7.555;   15.580;27890.340;-0.00137;-0.00011
 919.62;  -23.745;  -28.120;27654.439; 0.00075; 0.00006
 920.18;   10.555;   12.380;27634.840;-0.00031;-0.00002
 920.73;  -13.645;  -26.820;27550.340; 0.00228; 0.00018
 921.29;  -11.045;  -23.720;27017.641; 0.00222; 0.00017
 921.85;   18.655;    8.980;27000.840; 0.00171; 0.00013
 922.41;  -28.145;  -32.520;26863.840; 0.00077; 0.00006
 922.97;  -12.745;   -6.020;26599.539;-0.00120;-0.00009
 923.53;   52.855;   34.880;26105.939; 0.00323; 0.00025
 924.09;  -18.845;  -30.920;26005.141; 0.00219; 0.00017
 924.65;  -24.645;  -26.120;25817.740; 0.00027; 0.00002
 925.21;  -22.145;  -21.220;25588.039;-0.00017;-0.00001
 925.76;  -28.945;  -30.520;25424.439; 0.00029; 0.00002
 926.32;   14.955;   18.780;25229.539;-0.00071;-0.00006
 926.88;   -7.545;  -24.320;25060.340; 0.00314; 0.00024
 927.44;   -4.745;   -6.520;24711.039; 0.00034; 0.00003
 928.00;  152.355;  150.380;24361.641; 0.00038; 0.00003
 928.56;    0.155;   -9.120;24109.539; 0.00179; 0.00014
 929.12;   -7.745;   -7.520;23807.740;-0.00004; 0.00000
 929.67;   30.555;   32.180;23666.840;-0.00032;-0.00002
 930.23;  -28.345;  -36.920;23355.141; 0.00169; 0.00013
 930.79;    8.955;   -0.420;22957.439; 0.00187; 0.00015
 931.35;   -8.645;  -16.920;22612.039; 0.00167; 0.00013
 931.91;  -18.045;  -36.720;22275.939; 0.00381; 0.00030
 932.46;   21.555;   33.580;21815.141;-0.00248;-0.00019
 933.02;  -24.645;  -20.320;21264.539;-0.00091;-0.00007
 933.58;  -27.345;  -30.920;20844.740; 0.00076; 0.00006
 934.14;  -51.745;  -56.320;20402.141; 0.00100; 0.00008
 934.70;  -23.545;  -37.620;19642.840; 0.00315; 0.00025
 935.25;   -5.145;   -3.220;19307.439;-0.00044;-0.00003
 935.81;   82.955;   83.580;18676.840;-0.00015;-0.00001
 936.37;  -17.745;  -10.520;17979.240;-0.00176;-0.00014
 936.93;   20.655;   31.980;17501.539;-0.00286;-0.00022
 937.49;  -12.645;  -14.820;16906.439; 0.00057; 0.00004
 938.04;  -16.745;  -17.520;16194.840; 0.00021; 0.00002
 938.60;  -29.645;  -36.020;15755.940; 0.00181; 0.00014
 939.16;  -26.245;  -36.620;15186.640; 0.00305; 0.00024
 939.72;  -38.445;  -55.320;14717.140; 0.00513; 0.00040
 940.27;   57.555;   36.480;14265.840; 0.00662; 0.00052
 940.83;  -21.145;  -24.320;14046.340; 0.00102; 0.00008
 941.39;   -7.045;  -10.120;13687.040; 0.00101; 0.00008
 941.94;  -50.845;  -51.520;13350.740; 0.00023; 0.00002
 942.50;  -16.345;  -14.720;13158.740;-0.00055;-0.00004
 943.06;   14.855;    5.580;13027.240; 0.00318; 0.00025
 943.62;   41.755;   34.580;12943.740; 0.00247; 0.00020
 944.17;   12.655;   16.480;12754.540;-0.00133;-0.00010
 944.73;   75.155;   52.680;12761.440; 0.00779; 0.00062
 945.29;   30.955;   16.480;12770.440; 0.00500; 0.00040
 945.84;  -47.945;  -46.520;12694.340;-0.00049;-0.00004
 946.40;  -42.545;  -43.420;12711.140; 0.00030; 0.00002
 946.96;   32.255;   30.380;12656.240; 0.00064; 0.00005
 947.52;  -23.245;  -26.220;12695.840; 0.00101; 0.00008
 948.07;  -14.145;  -31.220;12718.240; 0.00572; 0.00045
 948.63;   62.355;   60.780;12818.540; 0.00052; 0.00004
 949.19;   -3.645;  -10.920;12749.440; 0.00239; 0.00019
 949.74;  -66.045;  -61.720;12760.940;-0.00141;-0.00011
 950.30;    2.755;   -2.320;12769.340; 0.00164; 0.00013
 950.85;   15.655;   20.480;12864.940;-0.00154;-0.00012
 951.41;  -36.845;  -44.920;12893.340; 0.00255; 0.00020
 951.97;   37.055;   41.080;12921.640;-0.00126;-0.00010
 952.52;   23.755;   -2.420;12865.640; 0.00813; 0.00065
 953.08;  -11.945;  -16.020;12883.640; 0.00126; 0.00010
 953.64;    9.555;    1.880;12846.440; 0.00235; 0.00019
 954.19;   39.955;   27.680;12893.040; 0.00371; 0.00030
 954.75;   55.355;   33.480;12872.140; 0.00659; 0.00053
 955.31;   41.655;   31.580;12867.940; 0.00301; 0.00024
 955.86;  -14.245;  -17.020;12774.540; 0.00082; 0.00007
 956.42;  -30.445;  -22.320;12672.940;-0.00241;-0.00019
 956.97;  -30.745;  -39.020;12694.140; 0.00244; 0.00020
 957.53;   -6.045;  -18.620;12611.240; 0.00371; 0.00030
 958.09;    6.355;  -11.520;12552.340; 0.00525; 0.00042
 958.64;    7.255;    7.180;12570.040; 0.00002; 0.00000
 959.20;   13.855;    0.980;12548.940; 0.00374; 0.00030
 959.75;   -9.345;  -12.020;12427.440; 0.00078; 0.00006
 960.31;   -3.045;    1.880;12418.840;-0.00143;-0.00011
 960.86;   56.255;   56.280;12464.640;-0.00001; 0.00000
 961.42;    5.755;  -11.020;12414.340; 0.00486; 0.00039
 961.98;  -24.945;  -34.820;12345.240; 0.00286; 0.00023
 962.53;  -26.245;  -32.420;12397.740; 0.00179; 0.00014
 963.09;   64.855;   63.880;12366.040; 0.00028; 0.00002
 963.64;   36.555;   27.680;12375.340; 0.00257; 0.00021
 964.20;  -45.345;  -42.920;12267.840;-0.00070;-0.00006
 964.75;   -4.545;  -15.620;12291.440; 0.00322; 0.00026
 965.31;  -47.145;  -49.620;12248.040; 0.00072; 0.00006
 965.86;  -13.145;  -17.120;12229.140; 0.00116; 0.00009
 966.42;   47.755;   32.180;12234.340; 0.00456; 0.00037
 966.97;   36.855;   35.380;12259.840; 0.00043; 0.00003
 967.53;   -6.145;   -8.620;12095.440; 0.00073; 0.00006
 968.08;  -16.245;  -38.420;12157.440; 0.00653; 0.00053
 968.64;   20.755;   28.680;12042.340;-0.00235;-0.00019
 969.19;   40.755;   18.280;12075.540; 0.00667; 0.00054
 969.75;   41.355;   36.680;12006.840; 0.00139; 0.00011
 970.30;   17.155;   -4.920;12064.140; 0.00657; 0.00053
 970.86;   24.555;    7.280;11971.840; 0.00516; 0.00042
 971.41;    7.455;   -6.520;11845.240; 0.00421; 0.00034
 971.97;    5.055;   10.780;11835.640;-0.00173;-0.00014
 972.52;  -52.145;  -31.020;11665.740;-0.00641;-0.00052
 973.08;   45.155;   39.580;11714.240; 0.00170; 0.00014
 973.63;   82.855;   85.880;11663.040;-0.00092;-0.00008
 974.19;   25.055;    1.780;11593.140; 0.00715; 0.00058
 974.74;    3.855;    3.980;11666.640;-0.00004; 0.00000
 975.29;  290.455;  304.580;11620.240;-0.00438;-0.00036
 975.85;   71.855;   69.580;11558.040; 0.00071; 0.00006
 976.40;   46.255;   60.980;11484.040;-0.00463;-0.00038
 976.96;   42.955;   45.980;11406.940;-0.00096;-0.00008
 977.51;   -7.345;  -18.420;11398.840; 0.00352; 0.00029
 978.07;   -3.045;  -10.120;11290.240; 0.00226; 0.00018
 978.62;   17.855;   28.880;11281.240;-0.00355;-0.00029
 979.17;  396.155;  411.480;11228.340;-0.00495;-0.00040
 979.73;  -15.845;  -19.020;11150.440; 0.00103; 0.00008
 980.28;   37.555;   33.280;11178.640; 0.00140; 0.00011
 980.84;   23.855;   28.580;11049.840;-0.00156;-0.00013
 981.39;  -13.745;   -7.020;11067.040;-0.00223;-0.00018
 981.94;    9.155;    7.980;10985.940; 0.00039; 0.00003
 982.50;   20.355;   20.280;10875.540; 0.00003; 0.00000
 983.05;   23.955;   14.880;10793.640; 0.00307; 0.00025
 983.60;   90.655;   88.880;10866.340; 0.00060; 0.00005
 984.16;   35.255;   27.580;10723.040; 0.00264; 0.00022
 984.71;   34.855;   16.380;10737.640; 0.00636; 0.00052
 985.27;    8.255;   -7.420;10610.940; 0.00547; 0.00045
 985.82;   26.155;   38.180;10600.940;-0.00421;-0.00035
 986.37;   45.555;   40.680;10579.940; 0.00172; 0.00014
 986.93;   31.855;   12.280;10493.140; 0.00697; 0.00057
 987.48;  -25.645;  -26.820;10429.940; 0.00042; 0.00003
 988.03;   11.155;   15.280;10433.640;-0.00149;-0.00012
 988.59;  -16.645;  -13.520;10379.140;-0.00113;-0.00009
 989.14;   32.255;   26.280;10316.040; 0.00220; 0.00018
 989.69;    1.155;  -10.920;10319.540; 0.00446; 0.00037
 990.24;   11.855;   19.180;10192.540;-0.00274;-0.00023
 990.80;  -17.145;  -33.220;10144.240; 0.00606; 0.00050
 991.35;  -26.945;  -20.220;10015.240;-0.00255;-0.00021
 991.90;   36.955;   23.780;10114.540; 0.00502; 0.00042
 992.46;   -4.545;  -13.320;10020.740; 0.00338; 0.00028
 993.01;  -22.345;  -27.820; 9927.640; 0.00212; 0.00018
 993.56;  202.255;  206.480; 9917.940;-0.00166;-0.00014
 994.11;   24.355;   19.180; 9840.440; 0.00205; 0.00017
 994.67;   -6.345;    3.580; 9785.640;-0.00396;-0.00033
 995.22;   -7.745;   -0.420; 9703.340;-0.00295;-0.00025
 995.77;   -9.745;  -14.420; 9635.340; 0.00190; 0.00016
 996.33;   13.655;    8.780; 9637.840; 0.00200; 0.00017
 996.88;  -12.345;   -9.020; 9517.540;-0.00137;-0.00011
 997.43;  -17.645;  -16.420; 9472.340;-0.00051;-0.00004
 997.98;   54.655;   35.280; 9370.640; 0.00818; 0.00068
 998.53;   41.455;   39.780; 9336.240; 0.00071; 0.00006
 999.09;    9.355;    6.380; 9233.940; 0.00128; 0.00011
 999.64;  -17.445;  -33.920; 9121.140; 0.00717; 0.00060
1000.19;  -10.645;   -8.920; 9086.640;-0.00076;-0.00006
1000.74;  -30.945;  -37.320; 9052.540; 0.00284; 0.00024
1001.30;  -12.745;  -20.220; 8993.240; 0.00336; 0.00028
1001.85;   -7.845;  -18.320; 8888.440; 0.00476; 0.00040
1002.40;  -16.945;  -32.620; 8808.140; 0.00724; 0.00061
1002.95;   38.555;   21.180; 8765.740; 0.00811; 0.00068
1003.50;   48.855;   54.780; 8714.040;-0.00282;-0.00024
1004.06;   22.255;   23.680; 8593.740;-0.00069;-0.00006
1004.61;  187.555;  174.580; 8532.040; 0.00639; 0.00054
1005.16;  229.355;  225.680; 8522.340; 0.00183; 0.00015
1005.71;   38.855;   33.980; 8537.740; 0.00245; 0.00021
1006.26;    4.855;  -16.220; 8503.640; 0.01076; 0.00090
1006.81;  -39.245;  -41.920; 8549.940; 0.00137; 0.00012
1007.37;    3.955;    9.580; 8518.340;-0.00292;-0.00025
1007.92;  -19.945;  -22.920; 8547.040; 0.00155; 0.00013
1008.47;   11.555;    7.880; 8650.340; 0.00191; 0.00016
1009.02;   21.955;    8.680; 8730.740; 0.00691; 0.00058
1009.57;   34.055;   22.680; 8770.540; 0.00586; 0.00049
1010.12;  -33.245;  -61.620; 8819.940; 0.01443; 0.00122
1010.67;   38.955;   14.280; 8938.440; 0.01229; 0.00104
1011.22;   39.955;   24.080; 9023.540; 0.00774; 0.00065
1011.78;  -17.145;  -28.720; 9062.440; 0.00554; 0.00047
1012.33;  -28.145;  -27.420; 9068.940;-0.00034;-0.00003
1012.88;   65.055;   58.180; 9182.740; 0.00319; 0.00027
1013.43;   15.655;   21.180; 9165.640;-0.00257;-0.00022
1013.98;   38.555;   25.280; 9256.140; 0.00617; 0.00052
1014.53;  -27.845;   -9.420; 9202.140;-0.00866;-0.00073
1015.08;  -30.545;  -33.320; 9159.840; 0.00132; 0.00011
1015.63;  -10.945;  -11.020; 9075.540; 0.00004; 0.00000
1016.18;  -23.045;  -25.220; 9064.740; 0.00107; 0.00009
1016.73;   46.555;   46.880; 8920.440;-0.00016;-0.00001
1017.28;  116.655;  112.180; 8837.240; 0.00230; 0.00020
1017.84;    4.555;    6.580; 8738.740;-0.00106;-0.00009
1018.39;   10.055;    5.480; 8609.540; 0.00244; 0.00021
1018.94;  -27.445;  -27.920; 8503.540; 0.00026; 0.00002
1019.49;   50.055;   44.680; 8362.940; 0.00299; 0.00025
1020.04;   76.555;   61.380; 8286.340; 0.00859; 0.00073
1020.59;   -0.445;   -3.920; 8098.540; 0.00201; 0.00017
1021.14;  -19.045;   -5.220; 8089.340;-0.00811;-0.00069
1021.69;  -15.045;  -30.720; 7874.640; 0.00936; 0.00080
1022.24;  -14.645;   -5.620; 7839.140;-0.00548;-0.00047
1022.79;   44.155;   48.480; 7670.040;-0.00267;-0.00023
1023.34;    5.655;   -1.720; 7596.740; 0.00463; 0.00040
1023.89;    8.655;    4.780; 7513.240; 0.00248; 0.00021
1024.44;    3.855;   10.180; 7382.240;-0.00411;-0.00035
1024.99;   37.655;   28.780; 7310.940; 0.00586; 0.00050
1025.54;   90.955;   73.780; 7213.140; 0.01149; 0.00098
1026.09;  -21.145;  -13.220; 7156.540;-0.00538;-0.00046
1026.64;   -4.545;  -21.120; 7033.140; 0.01148; 0.00098
1027.19;   36.155;    4.180; 6951.540; 0.02256; 0.00194
1027.74;   -3.545;    2.780; 6898.540;-0.00451;-0.00039
1028.29;   -5.245;   -5.120; 6785.340;-0.00009;-0.00001
1028.84;  109.055;  107.880; 6689.140; 0.00087; 0.00007
1029.39;   41.755;   33.680; 6693.440; 0.00603; 0.00052
1029.94;   -5.045;  -15.920; 6563.140; 0.00828; 0.00071
1030.48;   -9.145;  -21.920; 6489.840; 0.00983; 0.00085
1031.03;  -19.145;  -25.420; 6408.040; 0.00494; 0.00043
1031.58;   21.055;    7.380; 6390.940; 0.01091; 0.00094
1032.13;  -18.745;  -27.220; 6251.740; 0.00688; 0.00059
1032.68;    5.955;    1.680; 6173.540; 0.00353; 0.00030
1033.23;   -8.745;  -13.820; 6056.340; 0.00423; 0.00037
1033.78;    1.755;   -7.420; 5982.840; 0.00779; 0.00067
1034.33;   28.755;   12.380; 5956.340; 0.01410; 0.00122
1034.88;   74.355;   59.580; 5884.440; 0.01290; 0.00112
1035.43;   -9.345;  -20.320; 5797.040; 0.00976; 0.00084
1035.98;   15.455;    7.880; 5726.840; 0.00684; 0.00059
1036.52;   39.055;   31.980; 5703.140; 0.00648; 0.00056
1037.07;   32.755;   32.980; 5634.340;-0.00021;-0.00002
1037.62;   33.455;   22.680; 5538.840; 0.01017; 0.00088
1038.17;  158.155;  153.680; 5465.440; 0.00429; 0.00037
1038.72;   -7.845;  -13.020; 5419.540; 0.00504; 0.00044
1039.27;   -1.045;   -2.720; 5313.940; 0.00166; 0.00014
1039.82;   30.955;   35.480; 5277.140;-0.00457;-0.00040
1040.37;  -17.945;  -33.720; 5173.340; 0.01615; 0.00140
1040.91;   -0.345;  -22.820; 5135.140; 0.02336; 0.00203
1041.46;    3.655;   -4.420; 5014.240; 0.00856; 0.00074
1042.01;  -13.645;  -29.320; 4962.740; 0.01682; 0.00147
1042.56;   -1.045;   -6.120; 4871.240; 0.00555; 0.00048
1043.11;    7.855;   28.380; 4860.340;-0.02273;-0.00198
1043.66;   62.655;   75.780; 4779.540;-0.01479;-0.00129
1044.20;   19.755;   14.580; 4738.440; 0.00594; 0.00052
1044.75;   56.055;   48.780; 4683.040; 0.00849; 0.00074
1045.30;   82.955;   63.080; 4585.740; 0.02356; 0.00206
1045.85;    6.855;    6.680; 4510.240; 0.00021; 0.00002
1046.40;  -16.245;  -17.420; 4447.940; 0.00144; 0.00013
1046.94;  -18.145;   -9.920; 4426.440;-0.01026;-0.00090
1047.49;   24.455;   31.580; 4272.140;-0.00904;-0.00079
1048.04;   77.455;   76.180; 4311.640; 0.00163; 0.00014
1048.59;    1.655;  -18.520; 4233.240; 0.02640; 0.00231
1049.13;  157.855;  159.380; 4211.040;-0.00203;-0.00018
1049.68;  -23.445;  -23.320; 4059.940;-0.00017;-0.00001
1050.23;   36.255;   22.980; 4062.640; 0.01827; 0.00160
1050.78;  -31.245;  -33.720; 3990.540; 0.00346; 0.00030
1051.32;   -1.345;   -8.920; 3946.840; 0.01077; 0.00095
1051.87;  291.555;  278.080; 3869.840; 0.01955; 0.00172
1052.42;    6.855;   19.980; 3825.340;-0.01936;-0.00170
1052.97;  250.655;  241.180; 3792.340; 0.01412; 0.00124
1053.51;   11.855;    5.580; 3734.840; 0.00952; 0.00084
1054.06;   67.855;   65.080; 3661.740; 0.00427; 0.00038
1054.61;   29.455;   23.180; 3613.040; 0.00987; 0.00087
1055.16;  -20.645;  -26.520; 3555.440; 0.00933; 0.00082
1055.70;    9.855;   -0.020; 3441.340; 0.01610; 0.00142
1056.25;  -24.445;  -34.420; 3388.740; 0.01657; 0.00146
1056.80;   12.155;   13.080; 3359.040;-0.00156;-0.00014
1057.34;  -11.145;  -25.820; 3323.340; 0.02507; 0.00222
1057.89;   -0.745;    1.180; 3294.340;-0.00334;-0.00030
1058.44;   27.855;   40.680; 3243.440;-0.02256;-0.00200
1058.98;  -15.145;  -17.920; 3181.040; 0.00498; 0.00044
1059.53;   18.555;   23.580; 3089.840;-0.00918;-0.00081
1060.08;   -2.345;    5.480; 3095.640;-0.01456;-0.00129
1060.62;  158.155;  139.680; 3037.940; 0.03478; 0.00308
1061.17;   -9.645;  -11.720; 2981.040; 0.00398; 0.00035
1061.72;    0.655;   20.180; 2925.640;-0.03814;-0.00338
1062.26;   36.955;   38.180; 2887.140;-0.00244;-0.00022
1062.81;   34.255;   38.380; 2868.640;-0.00838;-0.00074
1063.36;   26.455;   23.680; 2810.640; 0.00572; 0.00051
1063.90;   42.455;   32.180; 2776.140; 0.02161; 0.00192
1064.45;   12.655;    2.380; 2733.940; 0.02197; 0.00195
1064.99;   27.155;   16.980; 2665.640; 0.02217; 0.00197
1065.54;   12.655;    5.980; 2665.140; 0.01478; 0.00132
1066.09;   43.555;   37.380; 2624.740; 0.01393; 0.00124
1066.63;   18.955;    6.880; 2613.240; 0.02759; 0.00246
1067.18;   86.655;   87.380; 2546.940;-0.00170;-0.00015
1067.72;   23.755;   26.180; 2507.940;-0.00576;-0.00051
1068.27;   -4.945;   -5.320; 2435.040; 0.00090; 0.00008
1068.82;   66.955;   61.280; 2427.340; 0.01390; 0.00124
1069.36;   42.155;   30.680; 2384.540; 0.02854; 0.00255
1069.91;    8.655;  -18.120; 2395.540; 0.06729; 0.00602
1070.45;   20.655;   18.280; 2355.540; 0.00608; 0.00054
1071.00;  -20.845;   -7.420; 2277.640;-0.03481;-0.00312
1071.54;   13.455;   11.680; 2266.040; 0.00468; 0.00042
1072.09;  101.955;  102.280; 2286.540;-0.00087;-0.00008
1072.64;   24.055;   16.480; 2225.240; 0.02070; 0.00186
1073.18;  139.555;  143.180; 2212.340;-0.00998;-0.00090
1073.73;  207.155;  203.380; 2142.340; 0.01058; 0.00095
1074.27;    9.355;    8.980; 2113.340; 0.00106; 0.00010
1074.82;   58.655;   58.180; 2108.140; 0.00137; 0.00012
1075.36;   48.555;   59.180; 2087.140;-0.03108;-0.00279
1075.91;   38.855;   25.680; 2074.740; 0.03907; 0.00351
1076.45;   33.955;   29.880; 2031.240; 0.01223; 0.00110
1077.00;   24.855;   14.780; 1990.740; 0.03068; 0.00276
1077.54;   49.155;   40.080; 2002.540; 0.02808; 0.00253
1078.09;   61.855;   39.080; 1946.540; 0.07120; 0.00642
1078.63;    3.755;    5.380; 1925.340;-0.00515;-0.00046
1079.18;   16.555;   13.880; 1902.340; 0.00863; 0.00078
1079.72;   43.355;   47.280; 1872.140;-0.01280;-0.00116
1080.27;   19.655;   -1.120; 1833.740; 0.06890; 0.00622
1080.81;   22.455;   10.980; 1806.540; 0.03853; 0.00348
1081.36;  -24.245;   -5.420; 1759.940;-0.06430;-0.00581
1081.90;   98.755;   92.080; 1773.640; 0.02309; 0.00209
1082.44;   72.455;   70.480; 1742.540; 0.00695; 0.00063
1082.99;   57.755;   45.380; 1720.040; 0.04407; 0.00399
1083.53;   17.955;   24.880; 1669.840;-0.02505;-0.00227
1084.08;   51.255;   42.680; 1694.940; 0.03142; 0.00285
1084.62;   37.455;   35.380; 1650.140; 0.00774; 0.00070
1085.17;   43.455;   37.580; 1644.640; 0.02201; 0.00200
1085.71;   11.555;   13.980; 1604.940;-0.00923;-0.00084
1086.25;   53.655;   41.580; 1614.040; 0.04673; 0.00424
1086.80;   52.055;   39.080; 1558.740; 0.05114; 0.00465
1087.34;   33.355;   31.480; 1549.140; 0.00746; 0.00068
1087.89;   13.655;    7.380; 1518.340; 0.02533; 0.00230
1088.43;   29.655;   41.380; 1515.840;-0.04795;-0.00436
1088.97;   30.855;   40.480; 1494.940;-0.03995;-0.00364
1089.52;  250.055;  249.880; 1492.140; 0.00074; 0.00007
1090.06;  130.255;  123.280; 1451.240; 0.02974; 0.00271
1090.61;   51.255;   40.080; 1435.740; 0.04857; 0.00443
1091.15;  207.155;  214.080; 1394.140;-0.03058;-0.00279
1091.69;   50.855;   40.280; 1365.740; 0.04739; 0.00432
1092.24;   50.055;   47.380; 1368.940; 0.01217; 0.00111
1092.78;   63.055;   79.380; 1337.940;-0.07570;-0.00691
1093.32;   41.955;   45.980; 1350.740;-0.01865;-0.00170
1093.87;   59.855;   63.080; 1327.440;-0.01530;-0.00140
1094.41;   18.555;   18.580; 1272.140;-0.00012;-0.00001
1094.95;  180.955;  178.080; 1282.440; 0.01397; 0.00128
1095.50;   -8.045;   -6.520; 1250.140;-0.00758;-0.00069
1096.04;   55.155;   51.480; 1268.140; 0.01839; 0.00168
1096.58;  205.655;  203.680; 1217.440; 0.01003; 0.00092
1097.13;    3.655;   -8.620; 1182.740; 0.06309; 0.00579
1097.67;  106.255;  101.380; 1204.340; 0.02550; 0.00234
1098.21;   24.555;    9.280; 1162.040; 0.08090; 0.00743
1098.76;   21.155;   17.780; 1142.840; 0.01813; 0.00167
1099.30;   33.355;   23.980; 1130.140; 0.05088; 0.00468
1099.84;   18.955;   16.280; 1116.240; 0.01477; 0.00136
1100.38;   66.955;   59.380; 1094.240; 0.04234; 0.00389

