
Integration time [ms]: 500.000
Averaging Nr. [scans]: 10
Smoothing Nr. [pixels]: 0
Data measured with spectrometer [name]: 1901096U1
Wave   ;Sample   ;Dark     ;Reference;Absolute Irradiance  ;Photon Counts
[nm]   ;[counts] ;[counts] ;[counts] ;[µWatt/cm?/nm]       ;[µMol/s/m?/nm]

 155.82;  234.717;  220.336;   69.357; 0.00000; 0.00000
 156.42;  264.231;  239.240;   98.706; 0.00000; 0.00000
 157.03;  249.432;  223.041;   92.018; 0.00000; 0.00000
 157.63;  229.029;  212.140;   78.786; 0.00000; 0.00000
 158.23;  242.128;  215.440;   94.680; 0.00000; 0.00000
 158.84;  246.737;  233.042;  119.574; 0.00000; 0.00000
 159.44;  232.726;  229.939;   82.550; 0.00000; 0.00000
 160.04;  251.022;  233.638;  102.110; 0.00000; 0.00000
 160.64;  327.125;  291.439;   93.044; 0.00000; 0.00000
 161.25;  258.032;  242.041;  112.923; 0.00000; 0.00000
 161.85;  284.028;  250.139;  109.378; 0.00000; 0.00000
 162.45;  234.022;  214.738;   90.607; 0.00000; 0.00000
 163.06;  262.125;  268.439;   94.943; 0.00000; 0.00000
 163.66;  269.234;  254.041;   96.745; 0.00000; 0.00000
 164.26;  228.414;  228.235;   70.019; 0.00000; 0.00000
 164.86;  235.716;  223.836;  112.245; 0.00000; 0.00000
 165.47;  252.208;  222.006;  144.771; 0.00000; 0.00000
 166.07;  242.303;  227.405;  171.417; 0.00000; 0.00000
 166.67;  244.401;  221.004;  157.886; 0.00000; 0.00000
 167.27;  256.406;  227.505;  165.443; 0.00000; 0.00000
 167.88;  268.200;  243.204;  176.084; 0.00000; 0.00000
 168.48;  322.894;  270.602;  149.416; 0.00000; 0.00000
 169.08;  279.399;  255.003;  149.165; 0.00000; 0.00000
 169.68;  277.513;  266.507;  196.226; 0.00000; 0.00000
 170.29;  285.294;  279.502;  174.114; 0.00000; 0.00000
 170.89;  281.000;  246.104;  182.177; 0.00000; 0.00000
 171.49;  290.999;  267.103;  158.870; 0.00000; 0.00000
 172.09;  252.801;  243.304;  197.793; 0.00000; 0.00000
 172.70;  267.388;  241.700;  178.950; 0.00000; 0.00000
 173.30;  352.994;  312.302;  192.313; 0.00000; 0.00000
 173.90;  225.083;  227.899;  149.290; 0.00000; 0.00000
 174.50;  402.788;  342.200;  169.250; 0.00000; 0.00000
 175.11;  338.892;  290.801;  178.397; 0.00000; 0.00000
 175.71;  241.604;  202.005;  163.326; 0.00000; 0.00000
 176.31;  216.803;  201.904;  157.407; 0.00000; 0.00000
 176.91;  269.491;  218.401;  166.476; 0.00000; 0.00000
 177.51;  240.887;  227.000;  169.037; 0.00000; 0.00000
 178.12;  343.690;  302.301;  189.172; 0.00000; 0.00000
 178.72;  295.198;  269.103;  188.859; 0.00000; 0.00000
 179.32;  315.091;  283.101;  182.185; 0.00000; 0.00000
 179.92;  249.491;  227.101;  182.480; 0.00000; 0.00000
 180.52;  390.104;  333.605;  194.824; 0.00000; 0.00000
 181.13;  285.783;  252.699;  169.191; 0.00000; 0.00000
 181.73;  246.795;  213.902;  204.825; 0.00000; 0.00000
 182.33;  280.883;  243.799;  191.492; 0.00000; 0.00000
 182.93;  235.785;  233.800;  210.121; 0.00000; 0.00000
 183.54;  209.876;  182.997;  146.515; 0.00000; 0.00000
 184.14;  233.496;  204.202;  159.832; 0.00000; 0.00000
 184.74;  326.995;  274.302;  211.228; 0.00000; 0.00000
 185.34;  243.805;  224.105;  232.734; 0.08054; 0.00125
 185.94;  292.484;  259.299;  205.003; 0.16420; 0.00255
 186.54;  245.897;  238.903;  234.146; 0.03136; 0.00049
 187.15;  218.190;  203.901;  218.473; 0.06886; 0.00108
 187.75;  346.508;  294.206;  238.667; 0.15773; 0.00248
 188.35;  319.384;  278.399;  236.604; 0.16117; 0.00254
 188.95;  234.400;  208.004;  223.885; 0.08649; 0.00137
 189.55;  198.487;  171.400;  204.335; 0.10297; 0.00163
 190.16;  283.088;  253.900;  250.453; 0.11276; 0.00179
 190.76;  205.981;  196.298;  231.976; 0.03442; 0.00055
 191.36;  277.384;  260.299;  258.608; 0.05890; 0.00094
 191.96;  236.196;  216.002;  282.334; 0.05445; 0.00087
 192.56;  230.885;  216.599;  277.413; 0.04057; 0.00065
 193.16;  260.481;  222.298;  299.568; 0.11763; 0.00190
 193.77;  305.572;  280.796;  305.671; 0.08999; 0.00146
 194.37;  233.992;  198.501;  293.691; 0.09339; 0.00152
 194.97;  203.185;  197.299;  303.214; 0.01510; 0.00025
 195.57;  212.100;  200.904;  323.385; 0.02103; 0.00034
 196.17;  290.070;  239.195;  329.855; 0.18677; 0.00306
 196.77;  217.586;  201.800;  362.624; 0.03859; 0.00063
 197.38;  235.084;  209.299;  385.309; 0.06039; 0.00100
 197.98;  296.476;  255.797;  391.422; 0.10988; 0.00182
 198.58;  249.195;  235.002;  441.930; 0.02885; 0.00048
 199.18;  204.893;  185.202;  429.902; 0.03959; 0.00066
 199.78;  344.372;  269.496;  456.870; 0.25765; 0.00430
 200.38;  249.888;  239.300;  499.846; 0.02225; 0.00037
 200.98;  205.091;  178.001;  502.986; 0.04772; 0.00080
 201.59;  249.416;  215.408;  611.653; 0.04340; 0.00073
 202.19;  215.506;  224.805;  605.646;-0.01344;-0.00023
 202.79;  212.088;  197.500;  587.448; 0.02841; 0.00048
 203.39;  197.391;  161.601;  644.186; 0.06726; 0.00114
 203.99;  232.897;  222.003;  740.949; 0.01664; 0.00028
 204.59;  244.194;  222.002;  733.510; 0.03702; 0.00063
 205.19;  229.783;  216.999;  796.291; 0.02916; 0.00050
 205.79;  239.395;  207.602;  825.824; 0.05252; 0.00090
 206.40;  213.192;  198.301;  875.395; 0.02528; 0.00044
 207.00;  239.696;  228.303;  907.041; 0.01795; 0.00031
 207.60;  220.392;  190.601;  928.798; 0.04894; 0.00085
 208.20;  215.007;  203.105; 1019.353; 0.01511; 0.00026
 208.80;  216.409;  193.206; 1029.973; 0.02904; 0.00051
 209.40;  225.218;  199.209; 1141.880; 0.02744; 0.00048
 210.00;  213.094;  202.402; 1124.417; 0.01521; 0.00027
 210.60;  224.100;  201.703; 1170.175; 0.02872; 0.00051
 211.20;  309.498;  273.303; 1254.557; 0.04666; 0.00082
 211.81;  186.297;  153.303; 1237.652; 0.04211; 0.00075
 212.41;  217.112;  190.407; 1355.714; 0.02610; 0.00046
 213.01;  212.422;  189.210; 1400.416; 0.01909; 0.00034
 213.61;  209.404;  172.005; 1399.523; 0.03827; 0.00068
 214.21;  197.509;  181.706; 1517.477; 0.01453; 0.00026
 214.81;  208.114;  185.208; 1599.136; 0.01878; 0.00034
 215.41;  254.108;  224.406; 1677.966; 0.02812; 0.00051
 216.01;  286.307;  255.406; 1747.260; 0.02734; 0.00049
 216.61;  252.084;  220.499; 1794.906; 0.04283; 0.00078
 217.21;  231.319;  218.909; 1900.484; 0.00853; 0.00015
 217.81;  191.024;  167.410; 1966.536; 0.01383; 0.00025
 218.41;  210.516;  187.108; 2070.058; 0.01561; 0.00028
 219.02;  192.824;  188.510; 2134.247; 0.00238; 0.00004
 219.62;  223.111;  209.407; 2229.697; 0.00907; 0.00017
 220.22;  233.211;  200.407; 2296.000; 0.02013; 0.00037
 220.82;  190.719;  178.909; 2396.090; 0.00607; 0.00011
 221.42;  202.122;  197.310; 2534.516; 0.00227; 0.00004
 222.02;  202.218;  170.809; 2602.876; 0.01485; 0.00028
 222.62;  176.517;  160.508; 2644.667; 0.00747; 0.00014
 223.22;  197.816;  179.408; 2747.058; 0.00948; 0.00018
 223.82;  191.617;  180.408; 2851.961; 0.00537; 0.00010
 224.42;  217.614;  216.608; 2979.536; 0.00045; 0.00001
 225.02;  210.316;  189.208; 3070.857; 0.00864; 0.00016
 225.62;  187.530;  170.212; 3154.212; 0.00564; 0.00011
 226.22;  222.022;  190.210; 3251.918; 0.01189; 0.00022
 226.82;  203.619;  178.409; 3374.683; 0.01037; 0.00020
 227.42;  197.304;  191.205; 3459.925; 0.00311; 0.00006
 228.02;  203.206;  208.305; 3557.146;-0.00229;-0.00004
 228.62;  158.023;  137.910; 3720.333; 0.00722; 0.00014
 229.22;  256.526;  235.611; 3822.360; 0.00655; 0.00013
 229.82;  192.293;  177.202; 3910.707; 0.00874; 0.00017
 230.43;  214.920;  202.209; 4060.498; 0.00417; 0.00008
 231.03;  199.807;  170.305; 4165.853; 0.01167; 0.00023
 231.63;  197.905;  166.305; 4299.932; 0.01240; 0.00024
 232.23;  195.610;  184.506; 4439.690; 0.00398; 0.00008
 232.83;  191.412;  186.107; 4570.914; 0.00173; 0.00003
 233.43;  239.614;  198.208; 4679.232; 0.01295; 0.00025
 234.03;  187.015;  174.508; 4822.739; 0.00357; 0.00007
 234.63;  150.722;  146.210; 4963.625; 0.00112; 0.00002
 235.23;  198.320;  189.309; 5087.302; 0.00224; 0.00004
 235.83;  188.309;  175.706; 5158.578; 0.00376; 0.00007
 236.43;  224.598;  189.403; 5238.061; 0.01209; 0.00024
 237.03;  192.908;  175.506; 5367.267; 0.00502; 0.00010
 237.63;  327.612;  255.007; 5476.106; 0.01843; 0.00037
 238.23;  188.620;  178.109; 5557.100; 0.00231; 0.00005
 238.83;  187.621;  163.509; 5587.205; 0.00541; 0.00011
 239.43;  198.705;  173.305; 5669.235; 0.00711; 0.00014
 240.03;  214.219;  188.909; 5684.486; 0.00584; 0.00012
 240.63;  176.130;  169.912; 5805.009; 0.00113; 0.00002
 241.23;  247.311;  210.407; 5803.599; 0.00892; 0.00018
 241.83;  189.519;  170.609; 5757.283; 0.00415; 0.00008
 242.43;  203.713;  188.907; 5830.420; 0.00367; 0.00007
 243.03;  177.020;  175.209; 5665.396; 0.00036; 0.00001
 243.63;  175.214;  161.208; 5769.037; 0.00287; 0.00006
 244.23;  179.204;  154.805; 5796.819; 0.00702; 0.00014
 244.83;  169.716;  150.808; 5806.754; 0.00403; 0.00008
 245.43;  217.603;  189.204; 5823.208; 0.00720; 0.00015
 246.02;  415.310;  345.506; 5800.188; 0.01558; 0.00032
 246.62;  187.404;  176.605; 5811.522; 0.00294; 0.00006
 247.22;  169.923;  152.710; 5818.533; 0.00314; 0.00006
 247.82;  225.021;  205.209; 5941.708; 0.00354; 0.00007
 248.42;  331.213;  264.607; 5924.620; 0.01360; 0.00028
 249.02;  219.217;  199.908; 5931.763; 0.00368; 0.00008
 249.62;  195.426;  169.111; 5978.860; 0.00436; 0.00009
 250.22;  268.123;  228.510; 6035.626; 0.00683; 0.00014
 250.82;  232.614;  196.608; 6063.934; 0.00710; 0.00015
 251.42;  205.328;  197.211; 6166.982; 0.00123; 0.00003
 252.02;  160.014;  148.708; 6146.432; 0.00209; 0.00004
 252.62;  200.235;  173.413; 6316.257; 0.00354; 0.00007
 253.22;  262.711;  225.507; 6362.600; 0.00693; 0.00015
 253.82;  167.424;  144.310; 6451.444; 0.00393; 0.00008
 254.42;  180.118;  168.609; 6595.581; 0.00204; 0.00004
 255.02;  205.825;  184.211; 6709.758; 0.00291; 0.00006
 255.62;  157.523;  144.710; 6866.335; 0.00185; 0.00004
 256.22;  337.611;  273.107; 6997.500; 0.01178; 0.00025
 256.82;  187.010;  163.506; 7151.784; 0.00399; 0.00009
 257.41;  179.226;  158.811; 7263.866; 0.00265; 0.00006
 258.01;  189.816;  153.908; 7368.656; 0.00532; 0.00011
 258.61;  232.523;  207.910; 7537.434; 0.00310; 0.00007
 259.21;  167.812;  158.207; 7585.914; 0.00143; 0.00003
 259.81;  239.412;  197.507; 7627.906; 0.00633; 0.00014
 260.41;  338.212;  275.007; 7729.113; 0.00907; 0.00020
 261.01;  151.430;  136.212; 7804.604; 0.00164; 0.00004
 261.61;  186.928;  159.711; 7874.186; 0.00281; 0.00006
 262.21;  172.608;  159.106; 7809.864; 0.00190; 0.00004
 262.81;  145.510;  140.007; 7883.093; 0.00072; 0.00002
 263.41;  185.826;  151.011; 7851.264; 0.00368; 0.00008
 264.00;  439.329;  360.812; 7910.396; 0.00740; 0.00016
 264.60;  192.423;  178.010; 7832.833; 0.00147; 0.00003
 265.20;  160.020;  141.709; 7811.800; 0.00200; 0.00004
 265.80;  179.719;  170.309; 7807.390; 0.00096; 0.00002
 266.40;  206.510;  171.206; 7758.985; 0.00443; 0.00010
 267.00;  246.119;  211.909; 7744.586; 0.00358; 0.00008
 267.60;  221.624;  181.510; 7713.844; 0.00359; 0.00008
 268.20;  234.623;  192.610; 7658.534; 0.00346; 0.00008
 268.80;  144.223;  134.910; 7613.828; 0.00077; 0.00002
 269.39;  221.201;  199.004; 7639.694; 0.00258; 0.00006
 269.99;  168.315;  151.208; 7545.848; 0.00144; 0.00003
 270.59;  179.419;  168.409; 7557.185; 0.00089; 0.00002
 271.19;  162.715;  153.308; 7463.747; 0.00071; 0.00002
 271.79;  204.613;  175.907; 7430.716; 0.00210; 0.00005
 272.39;  170.113;  163.307; 7390.417; 0.00045; 0.00001
 272.99;  172.502;  150.304; 7366.798; 0.00166; 0.00004
 273.59;  167.999;  146.003; 7394.867; 0.00156; 0.00004
 274.18;  199.704;  171.305; 7372.027; 0.00170; 0.00004
 274.78;  186.397;  165.703; 7463.749; 0.00126; 0.00003
 275.38;  445.680;  361.998; 7541.064; 0.00582; 0.00013
 275.98;  181.770;  158.695; 7555.049; 0.00156; 0.00004
 276.58;  183.562;  172.593; 7679.967; 0.00073; 0.00002
 277.18;  168.973;  140.996; 7761.887; 0.00135; 0.00003
 277.78;  194.756;  168.891; 7885.197; 0.00138; 0.00003
 278.37;  153.239;  144.387; 8094.415; 0.00046; 0.00001
 278.97;  178.250;  161.590; 8236.837; 0.00065; 0.00002
 279.57;  197.529;  162.284; 8401.201; 0.00145; 0.00003
 280.17;  160.526;  139.283; 8585.075; 0.00080; 0.00002
 280.77;  188.918;  170.081; 8739.990; 0.00071; 0.00002
 281.37;  182.917;  178.680; 8921.174; 0.00015; 0.00000
 281.96;  205.289;  174.472; 9108.466; 0.00124; 0.00003
 282.56;  197.199;  173.175; 9270.274; 0.00082; 0.00002
 283.16;  195.284;  179.071; 9355.810; 0.00061; 0.00001
 283.76;  169.783;  139.371; 9505.805; 0.00100; 0.00002
 284.36;  341.470;  274.567; 9628.166; 0.00241; 0.00006
 284.95;  180.047;  159.561; 9802.511; 0.00090; 0.00002
 285.55;  200.860;  171.965; 9973.057; 0.00107; 0.00003
 286.15;  191.570;  174.867;10153.664; 0.00055; 0.00001
 286.75;  228.344;  205.160;10252.877; 0.00098; 0.00002
 287.35;  167.350;  142.062;10345.749; 0.00100; 0.00002
 287.94;  147.259;  117.664;10437.340; 0.00112; 0.00003
 288.54;  168.056;  144.863;10563.308; 0.00092; 0.00002
 289.14;  167.055;  139.663;10625.296; 0.00116; 0.00003
 289.74;  169.759;  148.364;10698.339; 0.00094; 0.00002
 290.34;  178.082;  159.671;10794.693; 0.00064; 0.00002
 290.93;  168.374;  143.468;10889.406; 0.00100; 0.00002
 291.53;  170.680;  151.470;10882.075; 0.00075; 0.00002
 292.13;  150.076;  135.669;10986.727; 0.00060; 0.00001
 292.73;  210.165;  170.066;10956.902; 0.00199; 0.00005
 293.33;  141.084;  120.771;10919.612; 0.00087; 0.00002
 293.92;  154.689;  140.573;10969.773; 0.00060; 0.00001
 294.52;  139.595;  127.074;10992.032; 0.00051; 0.00001
 295.12;  174.989;  145.273;10934.672; 0.00134; 0.00003
 295.72;  159.488;  125.172;10815.554; 0.00163; 0.00004
 296.31;  219.203;  188.876;10904.618; 0.00129; 0.00003
 296.91;  233.282;  192.771;10752.392; 0.00217; 0.00005
 297.51;  180.898;  161.875;10565.563; 0.00086; 0.00002
 298.11;  415.598;  338.175;10514.872; 0.00328; 0.00008
 298.70;  168.687;  142.872;10425.745; 0.00117; 0.00003
 299.30;  129.450;  120.561;10340.539; 0.00052; 0.00001
 299.90;  183.637;  166.258;10399.297; 0.00096; 0.00002
 300.50;  218.058;  191.364;10320.936; 0.00135; 0.00003
 301.09;  151.057;  125.663;10404.916; 0.00156; 0.00004
 301.69;  176.872;  145.168;10530.383; 0.00166; 0.00004
 302.29;  154.859;  130.664;10625.238; 0.00155; 0.00004
 302.89;  157.864;  132.366;10712.996; 0.00162; 0.00004
 303.48;  216.353;  196.462;10883.577; 0.00157; 0.00004
 304.08;  158.482;  143.871;11034.496; 0.00112; 0.00003
 304.68;  187.467;  148.966;11199.933; 0.00364; 0.00009
 305.28;  166.168;  157.467;11331.138; 0.00087; 0.00002
 305.87;  131.784;  121.071;11557.216; 0.00094; 0.00002
 306.47;  162.574;  118.968;11629.007; 0.00424; 0.00011
 307.07;  183.187;  157.372;11817.946; 0.00227; 0.00006
 307.67;  187.199;  156.475;12043.183; 0.00251; 0.00006
 308.26;  151.688;  143.772;12135.263; 0.00071; 0.00002
 308.86;  186.362;  167.665;12308.970; 0.00202; 0.00005
 309.46;  158.988;  137.072;12516.957; 0.00194; 0.00005
 310.05;  153.271;  141.167;12737.271; 0.00126; 0.00003
 310.65;  188.207;  158.578;12857.363; 0.00247; 0.00006
 311.25;  196.782;  160.371;12935.298; 0.00344; 0.00009
 311.85;  186.373;  156.568;13145.596; 0.00308; 0.00008
 312.44;  172.975;  149.168;13347.612; 0.00236; 0.00006
 313.04;  174.883;  136.371;13485.708; 0.00363; 0.00009
 313.64;  171.972;  149.968;13620.981; 0.00236; 0.00006
 314.23;  188.580;  160.970;13715.076; 0.00268; 0.00007
 314.83;  479.176;  384.969;13936.025; 0.00986; 0.00026
 315.43;  161.963;  127.165;13967.090; 0.00389; 0.00010
 316.02;  194.995;  176.974;14040.930; 0.00163; 0.00004
 316.62;  171.079;  147.370;14125.363; 0.00235; 0.00006
 317.22;  183.986;  160.472;14245.032; 0.00222; 0.00006
 317.81;  160.988;  137.272;14233.762; 0.00226; 0.00006
 318.41;  176.192;  144.273;14263.897; 0.00298; 0.00008
 319.01;  166.874;  140.268;14427.401; 0.00271; 0.00007
 319.60;  196.878;  175.869;14388.747; 0.00204; 0.00005
 320.20;  129.982;  124.570;14258.389; 0.00053; 0.00001
 320.80;  164.777;  149.269;14334.539; 0.00160; 0.00004
 321.39;  168.878;  149.269;14417.251; 0.00200; 0.00005
 321.99;  151.775;  145.369;14396.221; 0.00067; 0.00002
 322.59;  237.189;  198.472;14327.565; 0.00374; 0.00010
 323.18;  158.386;  138.872;14288.034; 0.00196; 0.00005
 323.78;  185.994;  156.574;14312.623; 0.00272; 0.00007
 324.38;  156.979;  136.770;14236.162; 0.00206; 0.00006
 324.97;  156.691;  131.673;14253.394; 0.00238; 0.00006
 325.57;  194.379;  153.870;14167.559; 0.00415; 0.00011
 326.17;  205.297;  164.075;14160.352; 0.00382; 0.00010
 326.76;  186.383;  151.871;14123.806; 0.00346; 0.00009
 327.36;  215.988;  170.672;14073.860; 0.00421; 0.00012
 327.95;  158.294;  126.274;13930.123; 0.00278; 0.00008
 328.55;  155.194;  132.874;13852.519; 0.00192; 0.00005
 329.15;  412.574;  326.868;13731.407; 0.00804; 0.00022
 329.74;  137.907;  131.678;13598.370; 0.00049; 0.00001
 330.34;  178.400;  151.176;13577.890; 0.00208; 0.00006
 330.94;  190.969;  163.167;13380.550; 0.00246; 0.00007
 331.53;  164.874;  144.968;13220.110; 0.00168; 0.00005
 332.13;  143.294;  114.274;13089.027; 0.00242; 0.00007
 332.72;  313.694;  237.274;12940.220; 0.00669; 0.00019
 333.32;  155.202;  140.176;12869.816; 0.00132; 0.00004
 333.92;  144.108;  123.678;12706.579; 0.00169; 0.00005
 334.51;  142.405;  121.477;12609.342; 0.00182; 0.00005
 335.11;  198.201;  147.876;12467.899; 0.00445; 0.00012
 335.70;  142.013;  132.879;12368.236; 0.00073; 0.00002
 336.30;  206.536;  174.086;12332.478; 0.00235; 0.00007
 336.90;  186.017;  153.880;12252.377; 0.00245; 0.00007
 337.49;  154.015;  121.780;12294.456; 0.00239; 0.00007
 338.09;  186.316;  150.080;12364.864; 0.00262; 0.00007
 338.68;  219.837;  159.586;12237.490; 0.00389; 0.00011
 339.28;  184.334;  133.585;12302.356; 0.00330; 0.00009
 339.88;  197.541;  153.887;12390.342; 0.00278; 0.00008
 340.47;  224.837;  177.686;12416.990; 0.00305; 0.00009
 341.07;  216.836;  169.486;12531.981; 0.00300; 0.00009
 341.66;  161.643;  109.888;12623.655; 0.00316; 0.00009
 342.26;  198.633;  132.885;12797.052; 0.00409; 0.00012
 342.85;  201.239;  148.086;12937.109; 0.00306; 0.00009
 343.45;  187.057;  127.392;12984.911; 0.00319; 0.00009
 344.05;  245.822;  157.382;13082.432; 0.00479; 0.00014
 344.64;  259.977;  156.969;13194.041; 0.00524; 0.00015
 345.24;  235.592;  119.945;13265.813; 0.00573; 0.00017
 345.83;  314.538;  163.730;13312.418; 0.00752; 0.00022
 346.43;  275.179;  115.042;13468.470; 0.00677; 0.00020
 347.02;  363.289;  183.844;13572.576; 0.00738; 0.00021
 347.62;  297.406;   84.249;13379.367; 0.00845; 0.00025
 348.21;  404.293;  151.546;13533.522; 0.01008; 0.00029
 348.81;  482.595;  181.646;13381.845; 0.01160; 0.00034
 349.41;  510.411;  148.051;13369.417; 0.01374; 0.00040
 350.00;  550.705;  126.049;13470.448; 0.01669; 0.00049
 350.60;  598.301;  126.948;13588.306; 0.01855; 0.00054
 351.19;  713.298;  152.847;13759.078; 0.02147; 0.00063
 351.79;  809.107;  173.150;13840.276; 0.02243; 0.00066
 352.38;  844.611;  111.051;13938.916; 0.02470; 0.00073
 352.98;  965.076;  141.641;13979.839; 0.02846; 0.00084
 353.57; 1107.453;  135.134;14008.884; 0.03237; 0.00096
 354.17; 1171.759;  100.336;14067.448; 0.03360; 0.00099
 354.76; 1366.734;  155.229;14095.882; 0.03697; 0.00110
 355.36; 1428.205;  135.021;14156.360; 0.03884; 0.00115
 355.95; 1509.766;   93.010;14214.335; 0.04136; 0.00123
 356.55; 1602.932;  103.101;14229.371; 0.04276; 0.00127
 357.14; 1704.495;  121.490;14325.365; 0.04314; 0.00129
 357.74; 1781.666;  132.882;14177.550; 0.04407; 0.00132
 358.33; 1825.517;  137.768;14059.315; 0.04461; 0.00134
 358.93; 1848.459;  136.352;13923.782; 0.04567; 0.00137
 359.52; 1833.628;  114.643;13798.344; 0.04394; 0.00132
 360.12; 1858.385;  116.631;13719.972; 0.04442; 0.00134
 360.71; 1824.083;  136.431;13707.554; 0.04199; 0.00127
 361.31; 1852.766;  157.026;13621.268; 0.04143; 0.00125
 361.90; 2020.945;  322.920;13507.738; 0.04195; 0.00127
 362.50; 1736.023;  143.914;13484.098; 0.04031; 0.00122
 363.09; 1679.031;  124.816;13341.582; 0.03968; 0.00120
 363.69; 1635.362;  123.025;13261.120; 0.03948; 0.00120
 364.28; 1615.403;  131.937;13269.773; 0.03941; 0.00120
 364.88; 1690.721;  189.041;13351.165; 0.04172; 0.00127
 365.47; 1629.859;  148.852;13342.885; 0.04016; 0.00123
 366.06; 1594.593;  123.162;13257.149; 0.04056; 0.00124
 366.66; 1640.608;  131.966;13117.317; 0.04241; 0.00130
 367.25; 1614.816;  149.468;13006.099; 0.04120; 0.00126
 367.85; 1582.135;  118.174;12998.112; 0.03994; 0.00123
 368.44; 1680.408;  195.066;12809.111; 0.04074; 0.00125
 369.04; 1601.880;  138.258;12658.104; 0.04046; 0.00125
 369.63; 1579.263;  155.053;12538.629; 0.03894; 0.00120
 370.23; 1543.144;  130.248;12507.819; 0.03908; 0.00121
 370.82; 1523.117;  127.040;12275.616; 0.04007; 0.00124
 371.41; 1433.632;  118.644;12167.683; 0.03789; 0.00118
 372.01; 1419.825;  140.643;12115.712; 0.03762; 0.00117
 372.60; 1347.439;  117.146;11975.456; 0.03718; 0.00116
 373.20; 1350.767;  174.654;12039.964; 0.03475; 0.00108
 373.79; 1221.492;  147.261;11941.740; 0.03098; 0.00097
 374.39; 1138.181;  135.358;11902.018; 0.02930; 0.00092
 374.98; 1059.380;  140.058;11792.806; 0.02692; 0.00084
 375.57; 1015.770;  132.655;11721.304; 0.02646; 0.00083
 376.17;  965.257;  148.552;11796.660; 0.02465; 0.00078
 376.76;  891.370;  126.855;11721.704; 0.02316; 0.00073
 377.36;  810.473;  108.556;11727.335; 0.02131; 0.00067
 377.95;  774.980;  123.558;11721.412; 0.01951; 0.00062
 378.55;  712.980;  127.358;11711.712; 0.01767; 0.00056
 379.14;  676.900;  124.964;11709.428; 0.01648; 0.00052
 379.73;  624.357;  107.651;11636.354; 0.01602; 0.00051
 380.33;  602.671;  127.356;11703.912; 0.01445; 0.00046
 380.92;  579.465;  140.554;11668.144; 0.01349; 0.00043
 381.51;  558.986;  150.860;11686.070; 0.01237; 0.00039
 382.11;  476.083;  107.159;11643.046; 0.01122; 0.00036
 382.70;  496.567;  150.654;11603.363; 0.01069; 0.00034
 383.30;  442.374;  131.356;11590.348; 0.00952; 0.00030
 383.89;  439.863;  148.153;11709.427; 0.00892; 0.00029
 384.48;  417.760;  116.153;11665.995; 0.00923; 0.00030
 385.08;  398.666;  135.354;11854.352; 0.00802; 0.00026
 385.67;  350.473;  111.656;11824.527; 0.00712; 0.00023
 386.27;  340.673;  119.756;11982.236; 0.00657; 0.00021
 386.86;  341.161;  118.553;12038.498; 0.00667; 0.00022
 387.45;  319.270;  105.955;12123.205; 0.00629; 0.00020
 388.05;  365.978;  157.557;12277.087; 0.00603; 0.00020
 388.64;  346.283;  161.559;12483.044; 0.00533; 0.00017
 389.23;  317.877;  148.357;12506.880; 0.00484; 0.00016
 389.83;  272.766;  119.954;12733.854; 0.00436; 0.00014
 390.42;  302.069;  151.455;13005.489; 0.00421; 0.00014
 391.01;  255.093;  118.762;13122.046; 0.00374; 0.00012
 391.61;  247.967;  112.254;13136.770; 0.00375; 0.00012
 392.20;  250.565;  129.354;13389.848; 0.00331; 0.00011
 392.79;  228.571;  110.456;13482.314; 0.00318; 0.00010
 393.39;  269.465;  176.754;13714.141; 0.00247; 0.00008
 393.98;  206.177;   96.957;13887.473; 0.00287; 0.00009
 394.57;  251.350;  144.349;14119.877; 0.00282; 0.00009
 395.17;  277.781;  181.358;14342.017; 0.00247; 0.00008
 395.76;  263.058;  157.252;14398.170; 0.00273; 0.00009
 396.35;  215.776;  121.657;14723.368; 0.00237; 0.00008
 396.95;  238.773;  153.556;14851.736; 0.00214; 0.00007
 397.54;  237.176;  129.257;15011.260; 0.00266; 0.00009
 398.13;  320.282;  210.558;15237.327; 0.00268; 0.00009
 398.73;  217.779;  137.058;15364.602; 0.00194; 0.00006
 399.32;  199.458;  116.952;15491.473; 0.00198; 0.00007
 399.91;  199.075;  120.357;15600.753; 0.00186; 0.00006
 400.50;  215.968;  142.255;15697.381; 0.00174; 0.00006
 401.10;  218.484;  151.159;15828.054; 0.00157; 0.00005
 401.69;  209.476;  127.157;15854.460; 0.00191; 0.00006
 402.28;  194.977;  132.357;15897.175; 0.00144; 0.00005
 402.88;  208.777;  140.157;15970.475; 0.00157; 0.00005
 403.47;  204.778;  117.857;16008.786; 0.00198; 0.00007
 404.06;  227.775;  152.956;16056.750; 0.00170; 0.00006
 404.66;  208.977;  146.857;16006.671; 0.00141; 0.00005
 405.25;  215.661;  155.853;16161.003; 0.00135; 0.00005
 405.84;  187.088;  134.860;16197.799; 0.00117; 0.00004
 406.43;  178.280;  110.258;16343.805; 0.00152; 0.00005
 407.03;  227.583;  159.759;16413.145; 0.00150; 0.00005
 407.62;  164.751;  114.250;16282.092; 0.00113; 0.00004
 408.21;  278.279;  202.758;16281.894; 0.00169; 0.00006
 408.80;  164.668;  111.055;16313.383; 0.00119; 0.00004
 409.40;  166.785;  111.459;16243.061; 0.00122; 0.00004
 409.99;  216.577;  148.957;16360.174; 0.00150; 0.00005
 410.58;  149.894;   97.362;16266.062; 0.00116; 0.00004
 411.17;  154.891;  109.861;16281.023; 0.00099; 0.00003
 411.77;  196.173;  151.656;16300.337; 0.00099; 0.00003
 412.36;  165.681;  108.458;16211.225; 0.00128; 0.00004
 412.95;  162.394;  117.362;16312.261; 0.00100; 0.00003
 413.54;  183.798;  127.563;16200.710; 0.00125; 0.00004
 414.14;  193.196;  135.163;16218.084; 0.00129; 0.00004
 414.73;  143.786;   94.360;15995.170; 0.00111; 0.00004
 415.32;  158.195;  111.262;16069.668; 0.00106; 0.00004
 415.91;  139.709;  109.366;15987.828; 0.00068; 0.00002
 416.50;  147.503;   95.064;15943.356; 0.00119; 0.00004
 417.10;  146.393;  111.162;15912.947; 0.00081; 0.00003
 417.69;  240.799;  183.263;15903.020; 0.00132; 0.00005
 418.28;  208.500;  141.563;15902.022; 0.00154; 0.00005
 418.87;  192.708;  148.466;15922.014; 0.00102; 0.00004
 419.47;  189.301;  126.764;15950.140; 0.00145; 0.00005
 420.06;  219.523;  168.670;15879.978; 0.00118; 0.00004
 420.65;  200.702;  155.164;15894.348; 0.00107; 0.00004
 421.24;  159.621;  120.869;15789.352; 0.00091; 0.00003
 421.83;  148.118;  107.869;15610.418; 0.00096; 0.00003
 422.43;  160.615;  123.968;15405.994; 0.00088; 0.00003
 423.02;  177.704;  152.165;15476.169; 0.00062; 0.00002
 423.61;  226.838;  162.074;15425.441; 0.00157; 0.00006
 424.20;  151.930;  134.772;15117.051; 0.00042; 0.00001
 424.79;  191.440;  145.875;15050.664; 0.00112; 0.00004
 425.38;  147.226;  120.671;14884.408; 0.00066; 0.00002
 425.98;  156.924;  106.470;14787.487; 0.00127; 0.00005
 426.57;  233.643;  185.876;14780.592; 0.00120; 0.00004
 427.16;  251.148;  196.677;14687.646; 0.00138; 0.00005
 427.75;  147.237;  113.374;14634.427; 0.00087; 0.00003
 428.34;  145.845;  105.476;14516.915; 0.00105; 0.00004
 428.93;  197.565;  143.182;14525.937; 0.00141; 0.00005
 429.53;  198.780;  147.486;14399.900; 0.00134; 0.00005
 430.12;  153.663;  111.081;14222.417; 0.00113; 0.00004
 430.71;  133.756;  102.079;14024.941; 0.00085; 0.00003
 431.30;  224.442;  177.075;14018.987; 0.00127; 0.00005
 431.89;  187.961;  139.481;13882.793; 0.00131; 0.00005
 432.48;  199.778;  167.685;13707.379; 0.00087; 0.00003
 433.08;  171.064;  125.282;13447.029; 0.00126; 0.00005
 433.67;  169.474;  134.684;13403.231; 0.00096; 0.00003
 434.26;  186.180;  132.886;13265.896; 0.00148; 0.00005
 434.85;  187.685;  150.987;13088.457; 0.00103; 0.00004
 435.44;  197.596;  135.390;12961.570; 0.00175; 0.00006
 436.03;  188.802;  156.292;12988.141; 0.00091; 0.00003
 436.62;  337.780;  249.186;12866.499; 0.00251; 0.00009
 437.21;  165.601;  142.792;12843.026; 0.00065; 0.00002
 437.81;  199.605;  161.293;12774.470; 0.00109; 0.00004
 438.40;  201.494;  162.390;12805.753; 0.00111; 0.00004
 438.99;  207.113;  144.495;12760.762; 0.00179; 0.00007
 439.58;  153.306;  124.993;12757.487; 0.00081; 0.00003
 440.17;  158.813;  132.595;12745.864; 0.00075; 0.00003
 440.76;  198.006;  158.293;12749.184; 0.00114; 0.00004
 441.35;  149.319;  113.797;12701.024; 0.00102; 0.00004
 441.94;  180.105;  149.493;12804.873; 0.00088; 0.00003
 442.53;  138.208;   95.694;12713.802; 0.00122; 0.00005
 443.12;  193.319;  145.797;12880.022; 0.00135; 0.00005
 443.72;  137.525;  105.499;12883.889; 0.00091; 0.00003
 444.31;  140.238;  119.602;12914.632; 0.00059; 0.00002
 444.90;  213.620;  177.597;13017.940; 0.00102; 0.00004
 445.49;  127.726;  114.599;12977.005; 0.00037; 0.00001
 446.08;  176.122;  132.398;13065.358; 0.00123; 0.00005
 446.67;  174.017;  141.996;13047.204; 0.00091; 0.00003
 447.26;  147.965;  108.810;13128.922; 0.00110; 0.00004
 447.85;  137.142;  103.903;13136.170; 0.00093; 0.00003
 448.44;  138.257;   96.507;13156.836; 0.00116; 0.00004
 449.03;  135.733;  105.201;13212.075; 0.00085; 0.00003
 449.62;  137.820;   98.197;13212.835; 0.00110; 0.00004
 450.21;  172.757;  142.608;13232.144; 0.00083; 0.00003
 450.80;  185.742;  132.803;13210.071; 0.00145; 0.00005
 451.39;  131.843;  102.204;13280.288; 0.00081; 0.00003
 451.98;  153.665;  116.710;13361.025; 0.00100; 0.00004
 452.57;  146.060;  123.308;13352.967; 0.00061; 0.00002
 453.17;  137.847;  103.805;13390.926; 0.00091; 0.00003
 453.76;  138.673;   98.212;13449.411; 0.00107; 0.00004
 454.35;  155.162;  119.209;13449.195; 0.00094; 0.00004
 454.94;  134.867;  113.110;13547.948; 0.00057; 0.00002
 455.53;  121.765;   98.810;13647.621; 0.00059; 0.00002
 456.12;  133.175;  110.013;13639.739; 0.00060; 0.00002
 456.71;  186.787;  143.616;13729.472; 0.00110; 0.00004
 457.30;  153.787;  109.316;13869.368; 0.00112; 0.00004
 457.89;  143.883;  122.815;13859.720; 0.00053; 0.00002
 458.48;  112.979;   86.714;13992.283; 0.00066; 0.00003
 459.07;  177.894;  133.618;14014.042; 0.00110; 0.00004
 459.66;  120.186;   94.616;14017.355; 0.00064; 0.00002
 460.25;  108.988;   91.816;14043.774; 0.00042; 0.00002
 460.84;  172.189;  115.516;14122.487; 0.00140; 0.00005
 461.43;  112.991;   92.917;14239.908; 0.00049; 0.00002
 462.02;  169.988;  135.216;14250.976; 0.00085; 0.00003
 462.61;  114.495;   90.918;14354.648; 0.00057; 0.00002
 463.20;  136.502;  108.920;14434.730; 0.00067; 0.00003
 463.79;  158.396;  127.419;14540.469; 0.00075; 0.00003
 464.38;  102.993;   82.818;14582.535; 0.00048; 0.00002
 464.97;  145.697;   96.319;14564.374; 0.00117; 0.00005
 465.56;  110.900;   86.920;14552.106; 0.00057; 0.00002
 466.15;  109.831;   89.628;14775.149; 0.00048; 0.00002
 466.74;  183.829;  115.128;14771.829; 0.00161; 0.00006
 467.32;  110.111;   63.923;14624.322; 0.00108; 0.00004
 467.91;  163.015;  112.124;14685.370; 0.00119; 0.00005
 468.50;  105.715;   76.624;14662.474; 0.00067; 0.00003
 469.09;  130.626;  101.027;14603.087; 0.00068; 0.00003
 469.68;  215.110;  168.922;14576.221; 0.00107; 0.00004
 470.27;  173.432;  125.529;14710.860; 0.00110; 0.00004
 470.86;  130.744;   94.832;14779.790; 0.00082; 0.00003
 471.45;  117.033;   98.329;14796.673; 0.00043; 0.00002
 472.04;  120.533;   75.729;14893.567; 0.00102; 0.00004
 472.63;  274.740;  199.831;14949.444; 0.00170; 0.00007
 473.22;  146.256;  104.735;15081.421; 0.00094; 0.00004
 473.81;  110.555;   83.335;15204.309; 0.00061; 0.00002
 474.40;  162.449;  139.133;15323.040; 0.00053; 0.00002
 474.99;  143.653;  108.034;15371.985; 0.00080; 0.00003
 475.58;  183.345;  144.432;15472.797; 0.00087; 0.00003
 476.17;   89.168;   77.639;15381.247; 0.00026; 0.00001
 476.76;  107.863;   72.837;15500.493; 0.00078; 0.00003
 477.34;  131.165;  108.738;15690.220; 0.00050; 0.00002
 477.93;  112.056;   82.435;15655.120; 0.00066; 0.00003
 478.52;  128.167;   77.138;15804.937; 0.00113; 0.00005
 479.11;  104.664;   67.038;15723.306; 0.00084; 0.00003
 479.70;  215.764;  150.437;15824.401; 0.00145; 0.00006
 480.29;   56.461;   35.837;15854.772; 0.00046; 0.00002
 480.88;  113.252;   83.734;15970.172; 0.00066; 0.00003
 481.47;  143.364;   93.738;16240.510; 0.00110; 0.00004
 482.06;  105.363;   82.137;16277.097; 0.00052; 0.00002
 482.64;  107.752;   76.234;16369.672; 0.00070; 0.00003
 483.23;  101.951;   66.934;16600.365; 0.00078; 0.00003
 483.82;   99.359;   65.236;16701.951; 0.00076; 0.00003
 484.41;  117.371;   83.640;16720.385; 0.00075; 0.00003
 485.00;   94.775;   68.640;16684.320; 0.00059; 0.00002
 485.59;  116.861;   84.837;16757.570; 0.00072; 0.00003
 486.18;   98.863;   67.837;16565.195; 0.00070; 0.00003
 486.77;  124.869;   99.239;16641.256; 0.00058; 0.00002
 487.35;  134.979;   97.942;16516.766; 0.00084; 0.00003
 487.94;  124.288;  103.544;16342.365; 0.00047; 0.00002
 488.53;  190.461;  120.337;16328.276; 0.00160; 0.00007
 489.12;  106.965;   78.338;16137.914; 0.00065; 0.00003
 489.71;  117.283;   73.043;16040.510; 0.00101; 0.00004
 490.30;  125.863;   75.137;15823.296; 0.00117; 0.00005
 490.89;   93.783;   77.243;15770.310; 0.00038; 0.00002
 491.47;  201.373;  141.540;15636.203; 0.00139; 0.00006
 492.06;  177.985;  121.544;15767.440; 0.00131; 0.00005
 492.65;   80.565;   73.638;15651.517; 0.00016; 0.00001
 493.24;  106.775;   85.340;15745.321; 0.00050; 0.00002
 493.83;  102.281;   73.942;15737.289; 0.00067; 0.00003
 494.42;   82.064;   53.138;15680.605; 0.00069; 0.00003
 495.00;  138.601;   93.948;15772.610; 0.00106; 0.00004
 495.59;  129.590;  101.745;15555.489; 0.00067; 0.00003
 496.18;  104.276;   75.841;15587.835; 0.00069; 0.00003
 496.77;   79.894;   55.746;15499.329; 0.00059; 0.00002
 497.36;  137.683;  108.643;15408.615; 0.00071; 0.00003
 497.94;  149.479;  116.542;15405.174; 0.00081; 0.00003
 498.53;   89.004;   70.649;15336.545; 0.00045; 0.00002
 499.12;   76.213;   49.051;15247.135; 0.00068; 0.00003
 499.71;  119.380;   84.842;15223.276; 0.00087; 0.00004
 500.30;   96.588;   74.944;15162.171; 0.00055; 0.00002
 500.88;  125.514;   97.752;15165.755; 0.00070; 0.00003
 501.47;   96.306;   77.949;15064.069; 0.00047; 0.00002
 502.06;  128.908;   85.650;15084.289; 0.00111; 0.00005
 502.65;  102.104;   71.749;15053.546; 0.00079; 0.00003
 503.23;   92.294;   67.646;14986.635; 0.00064; 0.00003
 503.82;  108.706;   67.349;15037.966; 0.00108; 0.00005
 504.41;   80.819;   53.153;14906.905; 0.00073; 0.00003
 505.00;  223.209;  155.250;14855.493; 0.00179; 0.00008
 505.58;  130.502;   96.648;14830.521; 0.00090; 0.00004
 506.17;  168.317;  114.252;14742.188; 0.00144; 0.00006
 506.76;  130.799;   81.647;14670.589; 0.00131; 0.00006
 507.35;  150.417;   99.352;14583.180; 0.00138; 0.00006
 507.93;  116.727;   76.655;14526.590; 0.00109; 0.00005
 508.52;   97.223;   63.054;14549.052; 0.00093; 0.00004
 509.11;  128.309;   70.950;14402.097; 0.00157; 0.00007
 509.70;  103.421;   60.253;14285.923; 0.00119; 0.00005
 510.28;  129.220;   96.753;14326.917; 0.00090; 0.00004
 510.87;  112.528;   68.556;14263.308; 0.00122; 0.00005
 511.46;  105.627;   63.355;14128.893; 0.00118; 0.00005
 512.05;  120.012;   53.451;14064.229; 0.00188; 0.00008
 512.63;  133.044;   85.560;14044.876; 0.00134; 0.00006
 513.22;  125.129;   60.356;13960.816; 0.00185; 0.00008
 513.81;  130.856;   74.763;13930.912; 0.00161; 0.00007
 514.40;  119.846;   56.561;13850.705; 0.00183; 0.00008
 514.98;  158.448;   91.761;13811.717; 0.00193; 0.00008
 515.57;  188.529;   98.256;13759.513; 0.00263; 0.00011
 516.16;  318.336;  194.558;13665.995; 0.00365; 0.00016
 516.74;  137.937;   61.158;13650.798; 0.00227; 0.00010
 517.33;  210.426;   93.655;13631.582; 0.00347; 0.00015
 517.92;  194.839;   77.059;13572.029; 0.00351; 0.00015
 518.50;  145.554;   50.163;13526.084; 0.00287; 0.00012
 519.09;  206.837;   76.358;13522.206; 0.00392; 0.00017
 519.68;  196.343;   63.860;13582.164; 0.00400; 0.00017
 520.26;  225.844;   61.960;13514.477; 0.00496; 0.00022
 520.85;  231.342;   67.859;13509.653; 0.00497; 0.00022
 521.44;  249.338;   83.258;13416.109; 0.00509; 0.00022
 522.02;  240.833;   48.057;13449.657; 0.00592; 0.00026
 522.61;  269.857;   54.064;13481.719; 0.00663; 0.00029
 523.20;  331.542;  102.759;13529.651; 0.00704; 0.00031
 523.78;  291.944;   36.860;13421.774; 0.00788; 0.00034
 524.37;  351.345;   81.160;13489.089; 0.00837; 0.00037
 524.96;  331.153;   53.963;13546.479; 0.00860; 0.00038
 525.54;  415.852;   79.662;13559.268; 0.01045; 0.00046
 526.13;  445.050;   86.061;13613.739; 0.01118; 0.00049
 526.72;  416.545;   36.160;13636.987; 0.01187; 0.00052
 527.30;  486.967;   79.866;13736.029; 0.01270; 0.00056
 527.89;  529.462;   87.665;13772.479; 0.01381; 0.00061
 528.48;  540.054;   67.963;13717.585; 0.01479; 0.00065
 529.06;  612.061;   96.665;13839.567; 0.01614; 0.00071
 529.65;  646.670;   87.867;13879.060; 0.01750; 0.00077
 530.23;  687.283;   90.871;13985.299; 0.01870; 0.00083
 530.82;  747.054;   92.763;14006.492; 0.02057; 0.00091
 531.41;  770.359;   82.864;13952.847; 0.02172; 0.00096
 531.99;  878.363;  128.365;14189.484; 0.02360; 0.00105
 532.58;  839.072;   53.068;14202.188; 0.02482; 0.00110
 533.17; 1328.474;  372.868;14394.606; 0.02999; 0.00134
 533.75;  974.264;   82.365;14400.594; 0.02800; 0.00125
 534.34; 1006.765;   46.266;14487.405; 0.03021; 0.00135
 534.92; 1141.166;  109.366;14675.321; 0.03231; 0.00144
 535.51; 1150.268;   65.267;14802.540; 0.03387; 0.00152
 536.10; 1220.363;   73.565;14892.283; 0.03593; 0.00161
 536.68; 1271.459;   46.464;14930.339; 0.03822; 0.00171
 537.27; 1333.276;   71.169;15110.231; 0.03936; 0.00177
 537.85; 1418.965;   79.266;15302.512; 0.04142; 0.00186
 538.44; 1474.880;   64.070;15447.575; 0.04342; 0.00195
 539.02; 1524.667;   44.966;15526.634; 0.04560; 0.00205
 539.61; 1609.370;   51.267;15661.866; 0.04765; 0.00215
 540.20; 1719.679;   99.270;15878.364; 0.04936; 0.00223
 540.78; 1798.774;   90.468;16158.702; 0.05162; 0.00233
 541.37; 1843.090;   64.073;16286.580; 0.05346; 0.00242
 541.95; 1941.685;  101.471;16484.824; 0.05507; 0.00249
 542.54; 1984.788;   80.672;16728.355; 0.05640; 0.00256
 543.12; 2134.173;  103.568;16867.094; 0.05971; 0.00271
 543.71; 2180.177;   90.769;17189.740; 0.06090; 0.00277
 544.29; 2228.672;   73.468;17314.779; 0.06235; 0.00284
 544.88; 2298.070;   92.767;17689.258; 0.06310; 0.00287
 545.47; 2310.368;   40.767;17727.537; 0.06478; 0.00295
 546.05; 2430.485;   89.871;17966.822; 0.06626; 0.00302
 546.64; 2676.475;  236.468;18134.611; 0.06884; 0.00314
 547.22; 2514.890;   67.473;18293.980; 0.06848; 0.00313
 547.81; 2591.293;  109.374;18506.514; 0.06881; 0.00315
 548.39; 2626.385;   68.371;18651.521; 0.07086; 0.00325
 548.98; 2670.182;   82.770;18741.889; 0.07171; 0.00329
 549.56; 2708.885;   80.571;18939.928; 0.07223; 0.00332
 550.15; 2709.582;   49.370;19057.387; 0.07310; 0.00336
 550.73; 2733.002;   61.976;19266.816; 0.07321; 0.00337
 551.32; 2773.599;   69.075;19436.779; 0.07385; 0.00340
 551.90; 2777.782;   60.871;19450.693; 0.07426; 0.00343
 552.49; 2855.398;   87.875;19831.463; 0.07519; 0.00347
 553.07; 2860.186;  100.672;19986.041; 0.07500; 0.00347
 553.66; 2849.089;   84.973;20108.471; 0.07480; 0.00346
 554.24; 2963.903;  179.276;20174.721; 0.07578; 0.00351
 554.83; 2831.393;   81.874;20293.715; 0.07440; 0.00345
 555.41; 2836.595;   74.874;20431.230; 0.07465; 0.00347
 556.00; 2866.494;   89.774;20531.824; 0.07478; 0.00347
 556.58; 2843.509;   77.378;20630.889; 0.07460; 0.00347
 557.17; 2789.706;   79.077;20893.254; 0.07286; 0.00339
 557.75; 2776.117;   62.280;21027.377; 0.07296; 0.00340
 558.33; 2752.403;   57.876;21327.117; 0.07182; 0.00335
 558.92; 2798.816;   69.480;21511.662; 0.07259; 0.00339
 559.50; 2738.805;   57.177;21679.539; 0.07108; 0.00332
 560.09; 2718.306;   52.377;21966.859; 0.07041; 0.00330
 560.67; 2731.407;   92.177;22094.262; 0.06967; 0.00326
 561.26; 2982.303;  273.977;22325.426; 0.07119; 0.00334
 561.84; 2682.909;   96.578;22537.285; 0.06794; 0.00319
 562.43; 2603.420;   69.881;22665.506; 0.06623; 0.00311
 563.01; 2593.602;   68.476;22804.908; 0.06622; 0.00312
 563.60; 2554.805;   63.477;22987.145; 0.06516; 0.00307
 564.18; 2452.903;   18.377;22954.326; 0.06405; 0.00302
 564.76; 2479.809;   96.978;23225.584; 0.06263; 0.00296
 565.35; 2351.013;   19.179;23472.633; 0.06101; 0.00288
 565.93; 2423.413;   84.879;23797.533; 0.06115; 0.00289
 566.52; 2382.108;   57.978;24374.377; 0.06046; 0.00286
 567.10; 2293.719;   42.481;24673.195; 0.05879; 0.00279
 567.68; 2273.602;   45.276;25084.010; 0.05801; 0.00275
 568.27; 2214.911;   22.979;25516.410; 0.05715; 0.00271
 568.85; 2310.414;  107.380;26141.744; 0.05713; 0.00272
 569.44; 2177.919;   44.781;26641.191; 0.05544; 0.00264
 570.02; 2105.710;    5.678;27187.600; 0.05437; 0.00259
 570.60; 2162.218;   76.581;27742.281; 0.05384; 0.00257
 571.19; 2106.711;   64.579;28157.010; 0.05253; 0.00251
 571.77; 2070.705;   90.277;28428.947; 0.05104; 0.00244
 572.36; 1965.304;   14.977;28979.928; 0.05009; 0.00240
 572.94; 1980.914;   57.780;29391.047; 0.04931; 0.00236
 573.52; 1881.617;   21.580;29856.078; 0.04762; 0.00228
 574.11; 1874.519;   31.081;30210.297; 0.04701; 0.00226
 574.69; 1886.407;   39.278;30610.469; 0.04713; 0.00226
 575.27; 1831.610;   33.378;31068.201; 0.04563; 0.00219
 575.86; 1788.715;   44.780;31324.652; 0.04432; 0.00213
 576.44; 1760.118;   41.781;31821.682; 0.04353; 0.00210
 577.03; 1733.099;   38.175;32242.576; 0.04290; 0.00207
 577.61; 1683.001;   28.576;32332.604; 0.04196; 0.00203
 578.19; 1647.414;   27.179;32663.738; 0.04101; 0.00198
 578.78; 1633.713;   28.379;33150.430; 0.04060; 0.00196
 579.36; 1583.124;   21.282;33498.246; 0.03938; 0.00191
 579.94; 1613.500;   54.176;33838.488; 0.03922; 0.00190
 580.53; 1559.420;   50.281;33925.402; 0.03790; 0.00184
 581.11; 1558.414;   60.479;33902.137; 0.03746; 0.00182
 581.69; 1574.711;   82.579;33934.109; 0.03724; 0.00181
 582.28; 1513.112;   40.579;34024.719; 0.03678; 0.00179
 582.86; 1476.817;   29.580;34404.578; 0.03608; 0.00176
 583.44; 1481.415;   65.680;34290.453; 0.03540; 0.00173
 584.02; 1409.008;   43.078;34502.574; 0.03398; 0.00166
 584.61; 1458.806;   67.677;34367.449; 0.03461; 0.00169
 585.19; 1484.923;   72.082;34147.840; 0.03525; 0.00172
 585.77; 1411.815;   69.280;34324.949; 0.03351; 0.00164
 586.36; 1328.099;   34.775;34220.977; 0.03233; 0.00158
 586.94; 1337.024;   45.182;34264.648; 0.03240; 0.00159
 587.52; 1303.704;   16.577;34169.328; 0.03224; 0.00158
 588.11; 1284.217;   53.080;34027.176; 0.03104; 0.00153
 588.69; 1334.803;   76.376;34133.223; 0.03177; 0.00156
 589.27; 1223.919;   27.181;34017.098; 0.03033; 0.00149
 589.85; 1215.515;   34.080;34200.453; 0.02990; 0.00147
 590.44; 1216.519;   21.681;34417.695; 0.03024; 0.00149
 591.02; 1208.516;   37.680;34525.262; 0.02981; 0.00147
 591.60; 1151.403;   32.876;34488.723; 0.02850; 0.00141
 592.18; 1171.316;   49.980;34247.359; 0.02884; 0.00143
 592.77; 1168.296;   48.875;34253.250; 0.02888; 0.00143
 593.35; 1098.923;   16.382;34408.547; 0.02800; 0.00139
 593.93; 1043.722;    4.282;34700.426; 0.02684; 0.00133
 594.51; 1046.211;   28.279;34792.813; 0.02650; 0.00132
 595.10; 1006.111;  -19.621;35006.313; 0.02674; 0.00133
 595.68; 1034.420;   37.981;35184.211; 0.02609; 0.00130
 596.26;  979.913;    5.179;35202.832; 0.02558; 0.00127
 596.84;  962.906;  -11.623;35400.758; 0.02568; 0.00128
 597.43;  990.806;   44.577;35554.852; 0.02504; 0.00125
 598.01;  942.903;    5.076;35705.520; 0.02490; 0.00124
 598.59;  921.820;    6.281;35872.508; 0.02433; 0.00122
 599.17;  922.903;   16.776;35825.816; 0.02421; 0.00121
 599.76;  880.513;   -1.421;35690.133; 0.02367; 0.00119
 600.34;  864.295;   -2.426;35831.438; 0.02335; 0.00117
 600.92;  882.707;   36.577;35801.262; 0.02288; 0.00115
 601.50;  826.394;   -4.726;35980.527; 0.02250; 0.00113
 602.08;  904.000;   74.876;35747.195; 0.02261; 0.00114
 602.67;  883.698;   59.875;35853.664; 0.02254; 0.00114
 603.25;  806.717;    6.580;35959.473; 0.02192; 0.00111
 603.83;  802.817;   11.180;35792.375; 0.02181; 0.00110
 604.41;  740.310;   -2.522;35914.496; 0.02053; 0.00104
 604.99;  801.404;   47.377;36049.531; 0.02092; 0.00106
 605.58;  738.793;    9.674;35814.113; 0.02047; 0.00104
 606.16;  741.104;   14.777;35771.234; 0.02049; 0.00104
 606.74;  716.199;   29.775;35656.973; 0.01947; 0.00099
 607.32;  682.319;   15.481;35315.395; 0.01898; 0.00096
 607.90;  770.805;   76.477;35155.938; 0.01987; 0.00101
 608.48;  671.115;   21.180;34978.152; 0.01870; 0.00095
 609.07;  684.522;   53.182;34852.227; 0.01827; 0.00093
 609.65;  769.801;  109.676;34810.895; 0.01912; 0.00097
 610.23;  631.603;   24.477;34730.625; 0.01771; 0.00090
 610.81;  599.009;   -8.022;34496.090; 0.01778; 0.00091
 611.39;  562.303;  -18.224;34449.219; 0.01707; 0.00087
 611.97;  604.300;   23.876;34513.590; 0.01717; 0.00088
 612.55;  579.018;   29.181;34686.289; 0.01627; 0.00083
 613.14;  538.109;   -9.422;34700.883; 0.01628; 0.00083
 613.72;  484.395;  -38.326;34388.938; 0.01568; 0.00080
 614.30;  508.702;   -8.624;34659.613; 0.01550; 0.00080
 614.88;  527.503;    2.576;34379.121; 0.01583; 0.00081
 615.46;  495.007;    2.977;34221.359; 0.01493; 0.00077
 616.04;  522.091;   25.773;33908.996; 0.01522; 0.00078
 616.62;  505.395;   33.174;33753.336; 0.01448; 0.00075
 617.20;  431.197;  -34.725;33597.859; 0.01436; 0.00074
 617.79;  510.298;   50.475;33727.773; 0.01415; 0.00073
 618.37;  432.616;  -18.220;33152.965; 0.01401; 0.00072
 618.95;  462.001;   19.576;33161.605; 0.01384; 0.00072
 619.53;  390.802;  -23.724;32939.707; 0.01303; 0.00067
 620.11;  407.904;   -4.123;33004.430; 0.01301; 0.00067
 620.69;  395.097;   -2.425;32959.859; 0.01262; 0.00065
 621.27;  422.709;   33.878;32839.289; 0.01244; 0.00065
 621.85;  377.202;   15.776;32868.613; 0.01156; 0.00060
 622.43;  342.998;  -10.725;32800.363; 0.01143; 0.00059
 623.01;  307.104;  -52.623;32647.637; 0.01169; 0.00061
 623.59;  309.087;  -42.528;32613.248; 0.01148; 0.00060
 624.17;  340.712;    6.579;32739.422; 0.01095; 0.00057
 624.76;  304.893;  -11.726;32559.518; 0.01042; 0.00054
 625.34;  316.808;  -10.722;32568.980; 0.01087; 0.00057
 625.92;  319.810;   -0.122;32468.295; 0.01064; 0.00056
 626.50;  272.507;  -31.322;32290.064; 0.01018; 0.00053
 627.08;  315.114;   -6.320;32135.045; 0.01081; 0.00057
 627.66;  273.810;    1.679;32275.604; 0.00917; 0.00048
 628.24;  282.590;  -12.027;31949.385; 0.01001; 0.00053
 628.82;  271.593;  -12.326;31947.217; 0.00966; 0.00051
 629.40;  238.503;  -19.124;31771.922; 0.00881; 0.00046
 629.98;  217.996;  -37.626;31671.943; 0.00877; 0.00046
 630.56;  241.587;  -18.428;31838.951; 0.00894; 0.00047
 631.14;  213.404;  -47.123;31703.836; 0.00900; 0.00047
 631.72;  203.982;  -36.630;31831.287; 0.00832; 0.00044
 632.30;  182.494;  -44.926;31650.430; 0.00793; 0.00042
 632.88;  176.692;  -56.627;31645.305; 0.00817; 0.00043
 633.46;  180.905;  -48.723;31591.738; 0.00808; 0.00043
 634.04;  211.890;  -20.727;31630.781; 0.00820; 0.00043
 634.62;  240.700;   13.576;31356.793; 0.00809; 0.00043
 635.20;  235.896;   -5.226;31504.246; 0.00858; 0.00046
 635.78;  154.197;  -48.825;31576.955; 0.00728; 0.00039
 636.36;  139.496;  -48.025;31361.947; 0.00678; 0.00036
 636.94;  229.482;   18.171;31584.695; 0.00764; 0.00041
 637.52;  163.388;  -31.428;31522.854; 0.00708; 0.00038
 638.10;  117.887;  -67.128;31509.953; 0.00674; 0.00036
 638.68;  158.084;  -30.029;31569.314; 0.00687; 0.00037
 639.26;  177.006;  -15.123;31614.053; 0.00705; 0.00038
 639.84;  231.901;   30.876;31718.201; 0.00740; 0.00040
 640.42;  128.598;  -48.125;31593.980; 0.00652; 0.00035
 641.00;   89.298;  -72.625;31727.652; 0.00597; 0.00032
 641.58;  128.899;  -32.725;31806.523; 0.00598; 0.00032
 642.16;  118.899;  -36.525;31878.197; 0.00575; 0.00031
 642.74;  131.000;  -15.124;32005.869; 0.00542; 0.00029
 643.32;  145.800;  -16.024;32003.541; 0.00603; 0.00032
 643.90;  134.701;  -24.724;31874.514; 0.00597; 0.00032
 644.47;  104.602;  -33.924;31967.086; 0.00521; 0.00028
 645.05;  101.702;  -43.024;32259.957; 0.00544; 0.00029
 645.63;  112.103;  -29.624;32513.930; 0.00533; 0.00029
 646.21;  124.303;  -40.423;32526.102; 0.00622; 0.00034
 646.79;  115.404;  -18.323;32665.674; 0.00506; 0.00027
 647.37;   84.604;  -48.523;32710.047; 0.00507; 0.00027
 647.95;  155.605;   11.777;32776.320; 0.00548; 0.00030
 648.53;  129.906;  -17.623;32969.391; 0.00563; 0.00031
 649.11;   65.006;  -59.123;33030.465; 0.00476; 0.00026
 649.69;   61.807;  -62.923;33200.035; 0.00479; 0.00026
 650.27;   83.607;  -37.322;33310.707; 0.00465; 0.00025
 650.85;   67.008;  -50.422;33928.180; 0.00452; 0.00025
 651.42;   66.008;  -54.322;34418.152; 0.00466; 0.00025
 652.00;   33.209;  -69.822;34969.625; 0.00398; 0.00022
 652.58;   77.410;  -42.522;35191.797; 0.00465; 0.00025
 653.16;   52.510;  -49.022;36135.668; 0.00394; 0.00022
 653.74;   90.511;  -19.021;36648.441; 0.00426; 0.00023
 654.32;  100.811;    0.879;37165.813; 0.00389; 0.00021
 654.90;   76.112;  -21.321;37183.387; 0.00379; 0.00021
 655.48;   45.312;  -53.621;36928.457; 0.00387; 0.00021
 656.05;   25.713;  -79.821;36971.133; 0.00413; 0.00023
 656.63;   57.414;  -44.121;37052.504; 0.00397; 0.00022
 657.21;   72.814;  -39.120;36949.676; 0.00439; 0.00024
 657.79;  120.115;   20.480;36851.949; 0.00390; 0.00021
 658.37;  244.615;   92.380;36239.219; 0.00599; 0.00033
 658.95;   67.916;  -40.820;35664.891; 0.00429; 0.00024
 659.53;   50.516;  -26.220;35354.664; 0.00302; 0.00017
 660.10;   26.117;  -46.620;34605.535; 0.00289; 0.00016
 660.68;   30.718;  -48.119;34863.910; 0.00312; 0.00017
 661.26;   68.118;  -22.219;34861.480; 0.00358; 0.00020
 661.84;   76.619;   -6.319;34877.855; 0.00330; 0.00018
 662.42;   50.819;  -33.619;34987.824; 0.00337; 0.00019
 663.00;  110.120;    2.181;35223.297; 0.00430; 0.00024
 663.57;   49.420;  -25.819;35418.969; 0.00300; 0.00017
 664.15;   20.221;  -59.519;35596.441; 0.00317; 0.00018
 664.73;   50.622;  -22.218;35720.516; 0.00291; 0.00016
 665.31;   34.222;  -41.418;35988.887; 0.00302; 0.00017
 665.89;   39.523;  -33.618;36325.660; 0.00291; 0.00016
 666.46;    8.123;  -65.918;36449.031; 0.00294; 0.00016
 667.04;   -3.376;  -67.318;36462.703; 0.00254; 0.00014
 667.62;    8.824;  -53.018;36704.078; 0.00246; 0.00014
 668.20;   46.025;  -13.117;36966.848; 0.00235; 0.00013
 668.78;   31.525;  -47.417;37359.223; 0.00312; 0.00017
 669.35;  268.326;  130.883;37649.895; 0.00544; 0.00030
 669.93;   35.327;  -43.617;37991.066; 0.00311; 0.00017
 670.51;    3.227;  -76.017;38145.738; 0.00312; 0.00017
 671.09;   28.228;  -49.617;38209.109; 0.00306; 0.00017
 671.66;   68.528;  -13.216;38580.684; 0.00320; 0.00018
 672.24;    2.429;  -62.016;38670.656; 0.00253; 0.00014
 672.82;   27.129;  -34.916;39357.125; 0.00241; 0.00014
 673.40;    0.630;  -60.016;39317.500; 0.00237; 0.00013
 673.97;   30.631;  -39.716;39754.371; 0.00275; 0.00015
 674.55;  -13.269;  -69.416;40012.742; 0.00219; 0.00012
 675.13;   22.332;  -27.216;40245.215; 0.00194; 0.00011
 675.71;  -21.568;  -81.115;40351.789; 0.00233; 0.00013
 676.28;   27.433;  -32.215;40497.563; 0.00234; 0.00013
 676.86;   27.233;  -35.215;40881.934; 0.00243; 0.00014
 677.44;   31.534;  -39.115;41243.406; 0.00274; 0.00016
 678.01;   -9.765;  -56.715;41566.777; 0.00181; 0.00010
 678.59;    9.535;  -41.615;41856.949; 0.00197; 0.00011
 679.17;   61.736;  -15.414;42126.723; 0.00295; 0.00017
 679.75;  -15.364;  -61.014;42527.496; 0.00174; 0.00010
 680.32;  -12.663;  -63.114;42799.965; 0.00191; 0.00011
 680.90;   -0.463;  -73.114;42983.039; 0.00275; 0.00016
 681.48;   14.538;  -35.014;43704.012; 0.00186; 0.00011
 682.05;   69.939;  -15.214;43718.582; 0.00320; 0.00018
 682.63;  -26.461;  -83.013;44042.055; 0.00213; 0.00012
 683.21;   -5.260;  -66.313;44531.629; 0.00228; 0.00013
 683.78;   -4.260;  -48.413;44788.398; 0.00165; 0.00009
 684.36;  -16.959;  -67.313;44854.273; 0.00188; 0.00011
 684.94;  -25.359;  -70.513;45147.445; 0.00169; 0.00010
 685.52;    2.742;  -45.613;45579.016; 0.00181; 0.00010
 686.09;  -18.857;  -63.112;45676.688; 0.00166; 0.00010
 686.67;  -23.957;  -72.812;45566.063; 0.00183; 0.00011
 687.25;   15.644;  -34.212;45785.234; 0.00188; 0.00011
 687.82;  -19.256;  -59.912;45951.406; 0.00153; 0.00009
 688.40;    7.045;  -33.312;46290.379; 0.00152; 0.00009
 688.97;  -17.655;  -63.312;46223.852; 0.00172; 0.00010
 689.55;  -16.054;  -73.912;46394.621; 0.00218; 0.00013
 690.13;   17.547;  -32.711;46349.594; 0.00189; 0.00011
 690.70;   44.647;    3.589;46622.266; 0.00155; 0.00009
 691.28;   11.748;  -30.511;46828.539; 0.00159; 0.00009
 691.86;   15.248;  -26.811;47108.512; 0.00159; 0.00009
 692.43;  -23.151;  -49.811;47368.785; 0.00101; 0.00006
 693.01;  -19.351;  -48.211;47615.758; 0.00109; 0.00006
 693.59;   52.650;    4.790;47501.730; 0.00181; 0.00010
 694.16;  -35.250;  -71.310;47670.801; 0.00137; 0.00008
 694.74;   10.051;  -35.810;48102.574; 0.00174; 0.00010
 695.31;  -20.548;  -67.010;48244.445; 0.00176; 0.00010
 695.89;  -35.748;  -65.610;48315.719; 0.00114; 0.00007
 696.47;  -32.147;  -65.310;48414.789; 0.00126; 0.00007
 697.04;   81.953;   27.591;48520.863; 0.00207; 0.00012
 697.62;   34.554;  -11.709;48766.734; 0.00176; 0.00010
 698.19;    8.854;  -43.109;48808.207; 0.00198; 0.00012
 698.77;   40.755;  -14.509;49016.680; 0.00210; 0.00012
 699.34;    9.056;  -23.609;49065.551; 0.00124; 0.00007
 699.92;   13.156;  -31.909;49022.223; 0.00172; 0.00010
 700.50;  -33.943;  -62.509;49321.195; 0.00109; 0.00006
 701.07;    3.257;  -41.808;49435.668; 0.00172; 0.00010
 701.65;    8.158;  -40.408;49736.641; 0.00185; 0.00011
 702.22;    7.058;  -27.708;49895.914; 0.00132; 0.00008
 702.80;   44.359;  -12.708;49964.785; 0.00218; 0.00013
 703.37;   22.760;  -17.408;50193.457; 0.00153; 0.00009
 703.95;   10.260;  -25.908;50479.629; 0.00138; 0.00008
 704.52;   -9.039;  -36.807;50941.102; 0.00106; 0.00006
 705.10;  -40.539;  -71.907;51257.973; 0.00120; 0.00007
 705.68;  -47.638;  -71.807;51457.348; 0.00092; 0.00005
 706.25;  -24.738;  -51.107;51790.617; 0.00101; 0.00006
 706.83;    4.763;  -19.407;51709.492; 0.00093; 0.00005
 707.40;   44.664;   -5.507;51802.363; 0.00192; 0.00011
 707.98;   -7.136;  -32.306;52174.938; 0.00096; 0.00006
 708.55;  -19.635;  -41.406;52212.406; 0.00083; 0.00005
 709.13;  -16.335;  -39.006;52351.980; 0.00087; 0.00005
 709.70;   39.766;  -10.106;52634.453; 0.00191; 0.00011
 710.28;    0.166;  -34.606;52829.727; 0.00133; 0.00008
 710.85;   -6.533;  -46.506;52866.598; 0.00153; 0.00009
 711.43;  -24.932;  -57.805;53221.270; 0.00126; 0.00007
 712.00;   28.768;    4.195;53035.141; 0.00095; 0.00006
 712.58;    0.369;  -32.305;53267.813; 0.00125; 0.00007
 713.15;    3.769;  -18.105;53512.387; 0.00084; 0.00005
 713.73;  164.470;  106.895;53688.059; 0.00221; 0.00013
 714.30;   32.870;   -7.605;53973.031; 0.00156; 0.00009
 714.88;  -30.129;  -56.705;53874.602; 0.00102; 0.00006
 715.45;   23.171;  -12.804;54110.676; 0.00139; 0.00008
 716.03;  -15.128;  -38.504;54504.449; 0.00090; 0.00005
 716.60;  -14.127;  -36.304;54248.020; 0.00086; 0.00005
 717.17;  -19.127;  -50.204;54334.492; 0.00121; 0.00007
 717.75;   -5.626;  -28.204;54719.965; 0.00087; 0.00005
 718.32;   21.974;   -5.404;54422.438; 0.00107; 0.00006
 718.90;  -15.825;  -44.003;54219.508; 0.00110; 0.00007
 719.47;   23.775;  -34.803;54395.980; 0.00230; 0.00014
 720.05;   11.776;  -19.203;54543.352; 0.00121; 0.00007
 720.62;  -11.723;  -32.503;54725.727; 0.00082; 0.00005
 721.20;   43.277;    1.497;54603.398; 0.00165; 0.00010
 721.77;   23.678;  -13.003;54810.770; 0.00145; 0.00009
 722.34;    7.778;  -25.502;54964.742; 0.00132; 0.00008
 722.92;  -28.521;  -69.302;54886.816; 0.00162; 0.00010
 723.49;  -56.721;  -86.002;55052.387; 0.00117; 0.00007
 724.07;   19.180;  -14.402;55315.660; 0.00134; 0.00008
 724.64;   -5.919;  -38.502;55283.133; 0.00130; 0.00008
 725.21;   -3.019;  -36.502;55661.605; 0.00133; 0.00008
 725.79;    9.182;  -14.802;55881.777; 0.00096; 0.00006
 726.36;   -7.618;  -24.801;56024.648; 0.00069; 0.00004
 726.94;   -2.417;  -42.201;56315.820; 0.00159; 0.00010
 727.51;  -21.617;  -31.701;56807.895; 0.00040; 0.00002
 728.08;  -13.416;  -40.401;56846.766; 0.00108; 0.00007
 728.66;    4.085;  -36.201;57255.438; 0.00161; 0.00010
 729.23;  -32.715;  -46.301;57826.512; 0.00054; 0.00003
 729.80;  -37.614;  -65.500;57723.582; 0.00112; 0.00007
 730.38;   10.386;  -24.600;58136.555; 0.00140; 0.00009
 730.95;  -24.813;  -48.200;58380.727; 0.00094; 0.00006
 731.53;   17.587;  -19.900;58386.398; 0.00150; 0.00009
 732.10;    0.288;  -26.100;58444.473; 0.00106; 0.00006
 732.67;  -25.111;  -49.900;58673.445; 0.00100; 0.00006
 733.25;   57.989;   13.001;58645.816; 0.00182; 0.00011
 733.82;  -29.610;  -41.199;58935.488; 0.00047; 0.00003
 734.39;   -2.210;  -26.699;59133.359; 0.00099; 0.00006
 734.97;  -36.609;  -48.699;59207.234; 0.00049; 0.00003
 735.54;   62.891;   24.901;59275.906; 0.00154; 0.00009
 736.11;    7.092;  -27.699;59227.777; 0.00141; 0.00009
 736.69;   60.093;   21.402;59661.551; 0.00157; 0.00010
 737.26;  -19.307;  -17.298;59761.621;-0.00008;-0.00001
 737.83;  -28.806;  -53.198;59570.594; 0.00099; 0.00006
 738.41;  -31.906;  -65.298;59493.766; 0.00136; 0.00008
 738.98;  -14.405;  -44.998;59380.039; 0.00125; 0.00008
 739.55;   26.095;    2.402;59269.609; 0.00097; 0.00006
 740.12;  -24.704;  -43.198;59404.781; 0.00076; 0.00005
 740.70;  -26.704;  -58.897;59095.055; 0.00132; 0.00008
 741.27;  -38.003;  -58.297;59266.027; 0.00083; 0.00005
 741.84;  -59.602;  -78.697;58997.301; 0.00079; 0.00005
 742.42;  -13.902;  -47.997;58935.172; 0.00141; 0.00009
 742.99;   42.399;    2.903;59108.945; 0.00163; 0.00010
 743.56;  -28.801;  -38.597;58782.516; 0.00041; 0.00003
 744.13;  -51.700;  -60.096;58925.988; 0.00035; 0.00002
 744.71;  163.000;   98.204;59260.961; 0.00270; 0.00017
 745.28;   -5.199;  -24.796;59793.035; 0.00082; 0.00005
 745.85;  -35.298;  -48.396;60592.605; 0.00055; 0.00003
 746.42;  -11.798;  -34.996;60780.477; 0.00098; 0.00006
 747.00;    2.803;  -27.496;60843.250; 0.00128; 0.00008
 747.57;  148.303;   94.605;61990.422; 0.00227; 0.00014
 748.14;  -18.396;  -42.195;62691.895; 0.00101; 0.00006
 748.71;   18.604;  -16.295;62852.969; 0.00149; 0.00009
 749.29;    4.205;  -22.195;63047.340; 0.00113; 0.00007
 749.86;   -7.894;  -34.295;62964.410; 0.00113; 0.00007
 750.43;  -26.594;  -37.195;62938.785; 0.00046; 0.00003
 751.00;  -46.893;  -60.395;63066.457; 0.00058; 0.00004
 751.58;  -37.593;  -53.194;62976.328; 0.00068; 0.00004
 752.15;  173.408;  103.706;62703.602; 0.00303; 0.00019
 752.72;  -54.892;  -67.394;62198.273; 0.00055; 0.00003
 753.29;  127.009;   53.406;61943.344; 0.00322; 0.00020
 753.86;  -46.590;  -64.594;61476.219; 0.00079; 0.00005
 754.44;   11.610;  -19.394;60961.590; 0.00137; 0.00009
 755.01;  -22.289;  -43.793;61186.664; 0.00095; 0.00006
 755.58;  -33.289;  -41.493;61188.133; 0.00036; 0.00002
 756.15;    4.512;  -33.793;61287.309; 0.00171; 0.00011
 756.72;   23.912;   -8.993;61241.980; 0.00147; 0.00009
 757.29;   -8.287;  -25.193;61520.852; 0.00076; 0.00005
 757.87;  -43.886;  -66.893;61177.625; 0.00104; 0.00007
 758.44;  -34.086;  -49.592;61340.598; 0.00070; 0.00004
 759.01;   -6.685;  -33.492;61652.770; 0.00122; 0.00008
 759.58;  -47.085;  -61.392;61150.539; 0.00065; 0.00004
 760.15;   31.716;  -19.092;61244.414; 0.00233; 0.00015
 760.72;  -40.684;  -66.892;61275.887; 0.00121; 0.00008
 761.30;  -41.883;  -57.292;61491.059; 0.00071; 0.00005
 761.87;  -19.782;  -23.091;61700.730; 0.00015; 0.00001
 762.44;  -34.582;  -58.191;61389.602; 0.00110; 0.00007
 763.01;   -6.081;  -12.991;61658.973; 0.00032; 0.00002
 763.58;    5.419;  -14.891;61295.145; 0.00096; 0.00006
 764.15;    4.420;  -24.191;61126.418; 0.00135; 0.00009
 764.72;   -4.880;  -36.591;61225.391; 0.00150; 0.00010
 765.30;  -46.879;  -56.491;60961.664; 0.00046; 0.00003
 765.87;  -14.279;  -36.690;60665.336; 0.00108; 0.00007
 766.44;   56.722;   14.410;60815.809; 0.00203; 0.00013
 767.01;   33.623;    3.110;60390.180; 0.00148; 0.00009
 767.58;  -79.177;  -90.290;60249.254; 0.00054; 0.00003
 768.15;   17.424;    4.410;60025.125; 0.00064; 0.00004
 768.72;  -41.776;  -60.090;60071.797; 0.00090; 0.00006
 769.29;  -36.075;  -67.089;59639.867; 0.00153; 0.00010
 769.86;   22.725;  -23.589;59723.941; 0.00229; 0.00015
 770.43;  -54.674;  -70.789;59481.012; 0.00080; 0.00005
 771.00;  -10.073;  -23.889;59468.387; 0.00069; 0.00004
 771.58;  -12.273;  -28.989;59318.758; 0.00084; 0.00005
 772.15;  -36.872;  -52.189;58759.230; 0.00078; 0.00005
 772.72;   -9.672;  -37.988;58501.004; 0.00144; 0.00009
 773.29;  -21.071;  -35.288;58823.375; 0.00072; 0.00005
 773.86;  -37.871;  -63.988;58642.848; 0.00134; 0.00009
 774.43;  -34.170;  -45.688;58347.719; 0.00059; 0.00004
 775.00;    7.031;  -35.588;58084.594; 0.00221; 0.00014
 775.57;   -5.069;  -19.788;58187.266; 0.00077; 0.00005
 776.14;   -0.668;  -18.088;57666.438; 0.00091; 0.00006
 776.71;    8.332;   -8.287;57754.707; 0.00088; 0.00006
 777.28;  -16.867;  -40.287;57916.582; 0.00124; 0.00008
 777.85;  -40.767;  -35.687;57633.352;-0.00027;-0.00002
 778.42;    3.234;  -21.987;57701.227; 0.00135; 0.00009
 778.99;   18.735;   -5.487;57689.199; 0.00130; 0.00008
 779.56;  -34.365;  -38.687;57683.570; 0.00023; 0.00002
 780.13;  -30.564;  -32.086;57522.441; 0.00008; 0.00001
 780.70;   21.836;   -9.286;57127.715; 0.00171; 0.00011
 781.27;    3.137;   -7.286;57373.688; 0.00057; 0.00004
 781.84;  -47.563;  -46.486;57035.359;-0.00006; 0.00000
 782.41;   11.638;    2.714;57011.230; 0.00050; 0.00003
 782.98;  -11.361;  -40.186;56933.703; 0.00161; 0.00011
 783.55;   -3.261;  -26.885;56749.277; 0.00133; 0.00009
 784.12;    3.540;   -8.485;56663.449; 0.00068; 0.00004
 784.69;   13.940;   -0.885;56571.520; 0.00084; 0.00006
 785.26;  -24.459;  -38.585;56155.594; 0.00081; 0.00005
 785.83;  -52.859;  -65.785;56493.266; 0.00074; 0.00005
 786.40;    6.542;    0.715;56145.137; 0.00034; 0.00002
 786.97;   13.843;    3.616;56138.109; 0.00059; 0.00004
 787.54;   34.243;   10.016;55947.883; 0.00142; 0.00009
 788.11;   23.344;    3.716;55781.355; 0.00115; 0.00008
 788.68;  -24.156;  -43.284;55704.926; 0.00113; 0.00007
 789.25;   -9.555;  -19.784;55524.000; 0.00061; 0.00004
 789.82;   19.545;  -19.184;55552.473; 0.00232; 0.00015
 790.39;   12.246;  -20.284;55451.941; 0.00196; 0.00013
 790.96;   -9.754;  -30.183;55430.816; 0.00124; 0.00008
 791.52;  -32.653;  -42.683;55217.586; 0.00061; 0.00004
 792.09;   45.748;   20.717;55290.262; 0.00153; 0.00010
 792.66;    1.348;  -17.783;54793.531; 0.00118; 0.00008
 793.23;   72.049;   29.917;54894.703; 0.00261; 0.00017
 793.80;    2.849;  -20.883;54770.176; 0.00148; 0.00010
 794.37;    6.350;  -12.482;54456.648; 0.00118; 0.00008
 794.94;    6.750;  -15.882;54176.121; 0.00143; 0.00009
 795.51;   -5.949;  -28.782;54046.492; 0.00145; 0.00010
 796.08;  -26.148;  -24.282;53871.066;-0.00012;-0.00001
 796.65;  -21.748;  -32.682;53578.039; 0.00070; 0.00005
 797.21;   43.053;   15.018;53301.109; 0.00180; 0.00012
 797.78;    4.953;   -2.581;52997.883; 0.00049; 0.00003
 798.35;   53.754;   21.219;52509.055; 0.00212; 0.00014
 798.92;  713.754;  513.919;52532.129; 0.01306; 0.00087
 799.49;  -19.345;  -35.681;52089.301; 0.00108; 0.00007
 800.06;   52.656;   28.719;51915.273; 0.00159; 0.00011
 800.63;   20.356;   14.719;51659.145; 0.00038; 0.00003
 801.20;   -1.243;   -5.981;51781.215; 0.00032; 0.00002
 801.76;   -9.243;  -16.280;51808.391; 0.00047; 0.00003
 802.33;    6.758;  -19.980;51489.063; 0.00181; 0.00012
 802.90;   50.958;   13.720;51322.234; 0.00255; 0.00017
 803.47;  -11.641;  -18.880;51648.906; 0.00049; 0.00003
 804.04;  -18.840;  -35.980;51628.277; 0.00117; 0.00008
 804.61;   37.460;   19.920;51369.352; 0.00120; 0.00008
 805.17;   -4.139;  -29.679;51365.223; 0.00176; 0.00012
 805.74;  -30.939;  -39.079;51444.695; 0.00056; 0.00004
 806.31;    7.262;   -5.479;51037.367; 0.00089; 0.00006
 806.88;  -48.838;  -54.379;51096.238; 0.00039; 0.00003
 807.45;  -56.137;  -68.279;50997.012; 0.00085; 0.00006
 808.01;    6.364;  -10.179;50947.582; 0.00116; 0.00008
 808.58;   66.264;   46.122;50841.555; 0.00142; 0.00010
 809.15;    7.665;   -2.878;50956.328; 0.00074; 0.00005
 809.72;   42.765;   -0.878;50689.500; 0.00310; 0.00021
 810.29;   21.266;  -17.978;50169.973; 0.00282; 0.00019
 810.85;   -8.134;  -26.178;50108.844; 0.00130; 0.00009
 811.42;  -12.133;  -28.178;49628.117; 0.00117; 0.00008
 811.99;  -19.332;  -21.777;49373.191; 0.00018; 0.00001
 812.56;  -37.732;  -33.177;48973.660;-0.00034;-0.00002
 813.12;    7.769;   -3.077;48451.535; 0.00082; 0.00006
 813.69;    3.469;  -13.577;48256.105; 0.00129; 0.00009
 814.26;   -1.130;  -20.277;47696.578; 0.00147; 0.00010
 814.83;  -13.030;  -31.777;47276.250; 0.00146; 0.00010
 815.39;  -36.629;  -59.377;47147.422; 0.00178; 0.00012
 815.96;   12.371;  -17.676;46894.797; 0.00237; 0.00016
 816.53;   85.572;   31.324;46686.770; 0.00431; 0.00029
 817.10;  -18.527;  -36.476;46572.539; 0.00144; 0.00010
 817.66;  -45.527;  -62.676;46288.414; 0.00138; 0.00009
 818.23;  -52.326;  -64.176;46067.184; 0.00096; 0.00007
 818.80;  -24.026;  -57.476;45888.656; 0.00273; 0.00019
 819.37;   21.275;  -14.975;45872.930; 0.00298; 0.00020
 819.93;  -33.625;  -52.875;45789.703; 0.00159; 0.00011
 820.50;  -58.924;  -60.375;45226.676; 0.00012; 0.00001
 821.07;  -51.123;  -53.175;45200.645; 0.00017; 0.00001
 821.63;  106.377;   55.925;44835.719; 0.00426; 0.00029
 822.20;  102.178;   64.025;44818.590; 0.00323; 0.00022
 822.77;    4.178;  -15.174;44641.164; 0.00165; 0.00011
 823.34;  -22.421;  -35.774;44447.734; 0.00115; 0.00008
 823.90;  -28.321;  -36.574;44150.906; 0.00071; 0.00005
 824.47;    6.180;  -11.074;44035.379; 0.00150; 0.00010
 825.04;  -24.019;  -41.474;43910.254; 0.00153; 0.00011
 825.60;   -4.319;  -14.574;43882.324; 0.00090; 0.00006
 826.17;  -49.618;  -55.874;43471.496; 0.00056; 0.00004
 826.74;  -38.418;  -44.173;43311.770; 0.00051; 0.00004
 827.30;  -36.617;  -53.173;42923.641; 0.00149; 0.00010
 827.87;  -11.117;  -20.273;42849.914; 0.00083; 0.00006
 828.43;   -6.716;  -26.873;42678.484; 0.00183; 0.00013
 829.00;  -32.815;  -65.173;42585.656; 0.00294; 0.00020
 829.57;  -15.715;  -25.773;42440.332; 0.00092; 0.00006
 830.13;  -60.114;  -73.272;42015.703; 0.00121; 0.00008
 830.70;  -24.314;  -56.972;41864.375; 0.00301; 0.00021
 831.27;  -17.513;  -33.672;41474.148; 0.00150; 0.00010
 831.83;  -60.813;  -53.372;41387.020;-0.00069;-0.00005
 832.40;   -2.312;  -22.572;41185.090; 0.00190; 0.00013
 832.97;   31.889;    6.828;41002.664; 0.00237; 0.00016
 833.53;  -33.411;  -43.071;41077.836; 0.00091; 0.00006
 834.10;  -30.010;  -39.071;40836.008; 0.00086; 0.00006
 834.66;  -26.710;  -53.871;40648.781; 0.00260; 0.00018
 835.23;   -1.309;  -42.671;40573.055; 0.00397; 0.00028
 835.80;  -36.009;  -61.771;40440.824; 0.00250; 0.00017
 836.36;  -28.908;  -41.671;40334.199; 0.00124; 0.00009
 836.93;    1.793;  -18.970;40271.168; 0.00202; 0.00014
 837.49;   45.993;   18.630;40151.543; 0.00268; 0.00019
 838.06;  -14.806;  -28.470;40058.313; 0.00134; 0.00009
 838.62;  -14.806;  -48.070;39899.086; 0.00329; 0.00023
 839.19;   -4.405;  -37.770;39905.758; 0.00331; 0.00023
 839.76;  -34.305;  -32.870;39728.430;-0.00014;-0.00001
 840.32;  -51.504;  -66.470;39485.805; 0.00150; 0.00011
 840.89;  232.896;  172.031;39678.176; 0.00612; 0.00043
 841.45;  -21.403;  -25.669;39488.348; 0.00043; 0.00003
 842.02;  -57.002;  -76.369;39167.621; 0.00197; 0.00014
 842.58;  -34.802;  -50.069;39187.094; 0.00156; 0.00011
 843.15;   40.299;   -4.269;39180.465; 0.00457; 0.00032
 843.71;  -27.601;  -48.569;39060.836; 0.00216; 0.00015
 844.28;  -66.500;  -79.768;38864.809; 0.00137; 0.00010
 844.84;    3.000;  -21.268;38862.082; 0.00251; 0.00018
 845.41;  -21.399;  -51.168;38615.355; 0.00311; 0.00022
 845.97;  -41.798;  -56.768;38402.527; 0.00157; 0.00011
 846.54;  -49.298;  -51.168;38075.898; 0.00020; 0.00001
 847.10;  -26.797;  -35.168;38229.371; 0.00088; 0.00006
 847.67;  -56.097;  -58.667;37966.344; 0.00027; 0.00002
 848.23;  -26.196;  -48.767;38067.414; 0.00240; 0.00017
 848.80;    0.604;  -17.467;38042.086; 0.00193; 0.00014
 849.36;  -31.495;  -46.167;37738.262; 0.00158; 0.00011
 849.93;  -32.994;  -31.867;37655.934;-0.00012;-0.00001
 850.49;  -27.094;  -39.867;37582.004; 0.00139; 0.00010
 851.06;  -53.393;  -69.367;37505.277; 0.00174; 0.00012
 851.62;  -29.993;  -54.266;37262.051; 0.00267; 0.00019
 852.19;  -33.692;  -42.866;37233.020; 0.00101; 0.00007
 852.75;  -46.492;  -60.466;37155.895; 0.00155; 0.00011
 853.32;  -13.691;  -28.666;37105.266; 0.00167; 0.00012
 853.88;  -22.090;  -39.666;36902.438; 0.00197; 0.00014
 854.45;    2.110;  -18.166;37137.012; 0.00226; 0.00016
 855.01;   24.911;   -2.965;37010.383; 0.00313; 0.00022
 855.57;  -31.489;  -51.465;36921.453; 0.00225; 0.00016
 856.14;  -49.588;  -63.265;36626.629; 0.00155; 0.00011
 856.70;  -44.688;  -49.365;36714.199; 0.00053; 0.00004
 857.27;  -30.087;  -44.865;36510.172; 0.00169; 0.00012
 857.83;  -86.386;  -84.265;36357.344;-0.00024;-0.00002
 858.40;   33.314;   -2.264;36322.215; 0.00409; 0.00029
 858.96;  -29.485;  -44.364;36140.387; 0.00173; 0.00012
 859.52;   -7.385;  -42.264;36171.262; 0.00404; 0.00029
 860.09;  -25.284;  -43.564;35921.734; 0.00213; 0.00015
 860.65;  -16.084;  -34.264;35764.504; 0.00213; 0.00015
 861.22;  -37.783;  -42.764;35727.977; 0.00059; 0.00004
 861.78;   -3.382;  -17.363;35638.051; 0.00165; 0.00012
 862.34;  -35.582;  -50.163;35649.922; 0.00173; 0.00012
 862.91;  -26.281;  -41.863;35682.594; 0.00185; 0.00013
 863.47;  124.719;   60.137;35224.566; 0.00775; 0.00056
 864.03;  -48.380;  -59.263;35401.738; 0.00130; 0.00009
 864.60;   15.220;  -21.663;35293.512; 0.00443; 0.00032
 865.16;  -54.679;  -66.963;35132.184; 0.00149; 0.00011
 865.73;  -22.879;  -31.262;35111.855; 0.00102; 0.00007
 866.29;  105.822;   71.938;35043.527; 0.00413; 0.00030
 866.85;  -53.777;  -70.162;34721.301; 0.00201; 0.00015
 867.42;  -26.377;  -40.162;34616.371; 0.00170; 0.00012
 867.98;  -49.976;  -64.262;34527.145; 0.00177; 0.00013
 868.54;    2.724;  -24.162;34441.617; 0.00333; 0.00024
 869.11;  -57.775;  -61.461;34366.289; 0.00046; 0.00003
 869.67;  -27.575;  -42.861;34234.863; 0.00191; 0.00014
 870.23;  -24.574;  -40.861;34228.133; 0.00205; 0.00015
 870.80;  -17.973;  -52.761;33878.707; 0.00443; 0.00032
 871.36;  -49.173;  -63.361;33584.379; 0.00183; 0.00013
 871.92;   49.828;    8.139;33514.352; 0.00540; 0.00039
 872.48;  -58.972;  -60.360;33352.023; 0.00018; 0.00001
 873.05;  -22.571;  -35.560;33107.297; 0.00171; 0.00012
 873.61;  -18.971;  -45.160;33006.969; 0.00345; 0.00025
 874.17;  -28.070;  -40.060;32897.238; 0.00159; 0.00012
 874.74;  -37.070;  -53.560;32747.340; 0.00220; 0.00016
 875.30;  -21.070;  -37.760;32872.738; 0.00223; 0.00016
 875.86;  -29.070;  -51.360;32962.238; 0.00297; 0.00022
 876.42;  -49.370;  -67.560;32924.941; 0.00243; 0.00018
 876.99;  -27.670;  -48.260;32876.039; 0.00277; 0.00020
 877.55;  -18.970;  -37.360;32981.738; 0.00247; 0.00018
 878.11;   -9.870;  -22.860;32831.238; 0.00175; 0.00013
 878.68;  -20.570;  -32.460;32682.740; 0.00161; 0.00012
 879.24;  -12.270;  -39.460;32631.039; 0.00369; 0.00027
 879.80;  -11.670;  -20.160;32451.240; 0.00116; 0.00009
 880.36;  -23.170;  -46.060;32387.539; 0.00313; 0.00023
 880.92;   -7.070;  -26.660;32337.240; 0.00268; 0.00020
 881.49;  -16.570;  -40.960;32357.840; 0.00335; 0.00025
 882.05;  -11.970;  -23.460;32220.439; 0.00159; 0.00012
 882.61;   27.730;   10.040;32083.240; 0.00245; 0.00018
 883.17;  -14.370;  -41.360;32091.740; 0.00376; 0.00028
 883.74;  -20.370;  -34.960;32096.439; 0.00204; 0.00015
 884.30;  -34.570;  -64.260;31958.539; 0.00416; 0.00031
 884.86;   23.030;   -1.260;32176.439; 0.00340; 0.00025
 885.42;  -12.570;  -51.460;32150.439; 0.00546; 0.00040
 885.98;  -45.570;  -57.160;32145.740; 0.00162; 0.00012
 886.55;  -22.270;  -37.560;32321.740; 0.00214; 0.00016
 887.11;  -13.470;  -30.260;32423.840; 0.00234; 0.00017
 887.67;  -18.070;  -20.460;32421.840; 0.00033; 0.00002
 888.23;  -40.970;  -65.360;32570.340; 0.00339; 0.00025
 888.79;   15.530;  -21.260;32596.740; 0.00512; 0.00038
 889.35;  -28.370;  -61.160;32642.240; 0.00456; 0.00034
 889.92;    2.730;  -17.060;32765.641; 0.00275; 0.00020
 890.48;  166.730;  103.240;32825.039; 0.00878; 0.00065
 891.04;  -27.670;  -43.860;32990.238; 0.00223; 0.00017
 891.60;  -49.070;  -53.960;33047.441; 0.00067; 0.00005
 892.16;   -1.970;  -20.360;33188.941; 0.00252; 0.00019
 892.72;  -38.370;  -52.660;33357.141; 0.00195; 0.00015
 893.29;  -47.770;  -67.860;33494.738; 0.00273; 0.00020
 893.85;  -28.270;  -38.260;33665.738; 0.00135; 0.00010
 894.41;  -61.170;  -50.860;33926.641;-0.00139;-0.00010
 894.97;   14.630;  -10.160;33988.340; 0.00335; 0.00025
 895.53;  -35.370;  -52.860;34219.238; 0.00235; 0.00018
 896.09;  -29.970;  -52.360;34269.340; 0.00300; 0.00022
 896.65;  -26.670;  -45.760;34260.641; 0.00256; 0.00019
 897.21;   -6.970;  -11.360;34229.039; 0.00059; 0.00004
 897.77;  -23.170;  -39.360;34355.941; 0.00217; 0.00016
 898.34;  -28.770;  -35.160;34076.141; 0.00086; 0.00006
 898.90;   -3.670;  -22.960;33978.840; 0.00262; 0.00020
 899.46;   -9.870;  -22.260;34144.141; 0.00168; 0.00013
 900.02;   30.930;    5.240;33674.641; 0.00352; 0.00026
 900.58;  -11.670;  -25.260;33671.941; 0.00187; 0.00014
 901.14;   48.830;   11.740;33538.441; 0.00514; 0.00039
 901.70;   -1.270;  -14.960;33275.141; 0.00191; 0.00014
 902.26;  -41.270;  -55.160;33006.840; 0.00196; 0.00015
 902.82;   27.430;   -4.560;33014.641; 0.00452; 0.00034
 903.38;  -22.470;  -45.360;32705.539; 0.00327; 0.00025
 903.94;   -4.570;  -10.360;32674.340; 0.00083; 0.00006
 904.50;  -23.470;  -32.260;32451.039; 0.00127; 0.00010
 905.06;  -19.070;  -40.660;32229.039; 0.00314; 0.00024
 905.62;  -14.670;  -22.960;31916.439; 0.00121; 0.00009
 906.18;   -9.270;  -39.760;31805.539; 0.00450; 0.00034
 906.74;  -50.970;  -67.460;31546.039; 0.00245; 0.00019
 907.30;   31.430;   -3.160;31284.939; 0.00519; 0.00039
 907.86;   -0.070;   -7.460;31088.240; 0.00112; 0.00008
 908.42;   46.030;   20.040;30928.240; 0.00395; 0.00030
 908.98;   21.130;    4.940;30791.240; 0.00248; 0.00019
 909.54;    6.430;  -10.960;30862.939; 0.00267; 0.00020
 910.10;   22.430;    7.340;30640.740; 0.00233; 0.00018
 910.66;    7.930;  -22.660;30446.240; 0.00476; 0.00036
 911.22;    6.130;  -22.860;30321.141; 0.00454; 0.00035
 911.78;  -60.270;  -62.760;29941.939; 0.00039; 0.00003
 912.34;   21.330;    0.540;29914.439; 0.00330; 0.00025
 912.90;   46.030;    8.240;29777.039; 0.00605; 0.00046
 913.46;  -45.670;  -57.660;29485.039; 0.00193; 0.00015
 914.02;  -28.770;  -50.860;29482.439; 0.00357; 0.00027
 914.58;  -16.970;  -34.560;29279.641; 0.00285; 0.00022
 915.14;  -27.170;  -39.560;29122.939; 0.00202; 0.00015
 915.70;  -13.570;  -26.460;29026.539; 0.00212; 0.00016
 916.26;    7.330;  -11.060;28810.641; 0.00304; 0.00023
 916.82;  -46.470;  -53.760;28635.939; 0.00121; 0.00009
 917.38;   34.630;   -4.360;28403.039; 0.00652; 0.00050
 917.94;  111.930;   77.740;28214.240; 0.00576; 0.00044
 918.50;  -17.770;  -43.160;28052.641; 0.00430; 0.00033
 919.06;   12.530;  -12.660;27890.340; 0.00430; 0.00033
 919.62;  -18.670;  -44.260;27654.439; 0.00441; 0.00034
 920.18;   -6.170;  -19.560;27634.840; 0.00230; 0.00018
 920.73;  -17.570;  -28.760;27550.340; 0.00194; 0.00015
 921.29;  -24.470;  -39.960;27017.641; 0.00271; 0.00021
 921.85;    8.930;  -19.360;27000.840; 0.00499; 0.00038
 922.41;  -39.970;  -48.960;26863.840; 0.00159; 0.00012
 922.97;  -15.370;  -28.260;26599.539; 0.00230; 0.00018
 923.53;   40.330;    6.840;26105.939; 0.00602; 0.00046
 924.09;  -32.670;  -39.960;26005.141; 0.00132; 0.00010
 924.65;  -21.370;  -44.460;25817.740; 0.00423; 0.00033
 925.21;  -28.470;  -38.360;25588.039; 0.00183; 0.00014
 925.76;  -24.370;  -37.160;25424.439; 0.00237; 0.00018
 926.32;   -3.270;  -18.460;25229.539; 0.00283; 0.00022
 926.88;  -19.770;  -26.860;25060.340; 0.00133; 0.00010
 927.44;    1.930;  -30.560;24711.039; 0.00617; 0.00048
 928.00;  145.030;  103.140;24361.641; 0.00802; 0.00062
 928.56;   11.930;  -24.160;24109.539; 0.00696; 0.00054
 929.12;   -1.670;  -22.460;23807.740; 0.00404; 0.00031
 929.67;   40.230;   11.240;23666.840; 0.00566; 0.00044
 930.23;  -30.170;  -44.060;23355.141; 0.00274; 0.00021
 930.79;    2.330;  -22.260;22957.439; 0.00491; 0.00038
 931.35;  -18.270;  -33.760;22612.039; 0.00312; 0.00024
 931.91;  -22.770;  -43.460;22275.939; 0.00422; 0.00033
 932.46;   24.230;  -17.460;21815.141; 0.00861; 0.00067
 933.02;  -35.670;  -44.760;21264.539; 0.00190; 0.00015
 933.58;  -31.570;  -48.760;20844.740; 0.00367; 0.00029
 934.14;  -49.270;  -75.860;20402.141; 0.00580; 0.00045
 934.70;  -38.370;  -52.060;19642.840; 0.00306; 0.00024
 935.25;  -15.270;  -32.560;19307.439; 0.00395; 0.00031
 935.81;   82.630;   46.540;18676.840; 0.00852; 0.00067
 936.37;  -16.670;  -41.860;17979.240; 0.00613; 0.00048
 936.93;   25.030;    4.940;17501.539; 0.00507; 0.00040
 937.49;  -10.770;  -33.060;16906.439; 0.00585; 0.00046
 938.04;  -12.470;  -27.860;16194.840; 0.00422; 0.00033
 938.60;  -39.070;  -49.460;15755.940; 0.00294; 0.00023
 939.16;  -17.070;  -41.560;15186.640; 0.00720; 0.00056
 939.72;  -49.470;  -45.660;14717.140;-0.00116;-0.00009
 940.27;   39.130;    5.340;14265.840; 0.01061; 0.00083
 940.83;  -19.670;  -30.960;14046.340; 0.00363; 0.00029
 941.39;  -10.570;  -21.960;13687.040; 0.00374; 0.00029
 941.94;  -51.170;  -74.960;13350.740; 0.00799; 0.00063
 942.50;  -17.870;  -32.560;13158.740; 0.00501; 0.00039
 943.06;    4.830;    5.340;13027.240;-0.00018;-0.00001
 943.62;   33.930;    9.540;12943.740; 0.00841; 0.00066
 944.17;   14.030;  -21.460;12754.540; 0.01233; 0.00097
 944.73;   66.130;   20.940;12761.440; 0.01567; 0.00124
 945.29;   16.030;  -10.860;12770.440; 0.00929; 0.00073
 945.84;  -47.170;  -58.560;12694.340; 0.00393; 0.00031
 946.40;  -45.470;  -63.660;12711.140; 0.00621; 0.00049
 946.96;   24.530;    1.240;12656.240; 0.00793; 0.00063
 947.52;  -21.070;  -40.660;12695.840; 0.00662; 0.00052
 948.07;   -7.270;  -35.260;12718.240; 0.00937; 0.00074
 948.63;   47.130;   21.340;12818.540; 0.00855; 0.00068
 949.19;  -10.870;  -30.760;12749.440; 0.00653; 0.00052
 949.74;  -71.770;  -80.460;12760.940; 0.00283; 0.00022
 950.30;  -14.570;  -30.260;12769.340; 0.00505; 0.00040
 950.85;   15.330;  -22.260;12864.940; 0.01202; 0.00095
 951.41;  -47.670;  -58.160;12893.340; 0.00332; 0.00026
 951.97;   21.430;    5.540;12921.640; 0.00497; 0.00040
 952.52;   -1.570;  -11.260;12865.640; 0.00301; 0.00024
 953.08;  -19.170;  -37.660;12883.640; 0.00570; 0.00045
 953.64;    1.530;  -29.560;12846.440; 0.00950; 0.00076
 954.19;   22.330;   -1.760;12893.040; 0.00729; 0.00058
 954.75;   51.630;   10.140;12872.140; 0.01250; 0.00100
 955.31;   27.630;    8.440;12867.940; 0.00573; 0.00046
 955.86;  -28.270;  -51.160;12774.540; 0.00680; 0.00054
 956.42;  -28.070;  -47.560;12672.940; 0.00577; 0.00046
 956.97;  -32.270;  -60.260;12694.140; 0.00825; 0.00066
 957.53;  -13.070;  -30.260;12611.240; 0.00507; 0.00041
 958.09;   -8.370;  -20.760;12552.340; 0.00364; 0.00029
 958.64;  -10.970;  -20.260;12570.040; 0.00271; 0.00022
 959.20;    3.330;  -21.960;12548.940; 0.00735; 0.00059
 959.75;  -19.070;  -29.960;12427.440; 0.00317; 0.00025
 960.31;  -12.570;  -33.860;12418.840; 0.00617; 0.00050
 960.86;   54.630;   19.440;12464.640; 0.01018; 0.00082
 961.42;  -15.570;  -29.560;12414.340; 0.00405; 0.00033
 961.98;  -21.070;  -50.460;12345.240; 0.00852; 0.00069
 962.53;  -24.470;  -42.460;12397.740; 0.00522; 0.00042
 963.09;   56.630;   11.640;12366.040; 0.01301; 0.00105
 963.64;   21.330;    6.040;12375.340; 0.00443; 0.00036
 964.20;  -54.570;  -62.260;12267.840; 0.00223; 0.00018
 964.75;  -18.470;  -24.260;12291.440; 0.00168; 0.00014
 965.31;  -40.870;  -74.160;12248.040; 0.00970; 0.00078
 965.86;  -14.470;  -36.360;12229.140; 0.00637; 0.00051
 966.42;   51.530;   34.440;12234.340; 0.00500; 0.00040
 966.97;   42.830;    3.540;12259.840; 0.01148; 0.00093
 967.53;  -10.870;  -22.060;12095.440; 0.00329; 0.00027
 968.08;  -25.570;  -47.460;12157.440; 0.00644; 0.00052
 968.64;   23.130;   -7.160;12042.340; 0.00897; 0.00073
 969.19;   21.930;   -3.160;12075.540; 0.00745; 0.00060
 969.75;   32.030;   14.040;12006.840; 0.00533; 0.00043
 970.30;    0.530;   -8.460;12064.140; 0.00268; 0.00022
 970.86;   18.130;   -6.260;11971.840; 0.00728; 0.00059
 971.41;   -1.970;  -25.960;11845.240; 0.00724; 0.00059
 971.97;   -7.670;  -14.860;11835.640; 0.00217; 0.00018
 972.52;  -44.970;  -55.660;11665.740; 0.00324; 0.00026
 973.08;   32.330;   18.540;11714.240; 0.00421; 0.00034
 973.63;   69.930;   39.540;11663.040; 0.00929; 0.00076
 974.19;   13.930;   -9.060;11593.140; 0.00707; 0.00058
 974.74;    0.930;  -14.360;11666.640; 0.00472; 0.00038
 975.29;  290.230;  203.340;11620.240; 0.02694; 0.00220
 975.85;   59.430;   32.040;11558.040; 0.00853; 0.00070
 976.40;   44.130;    8.740;11484.040; 0.01114; 0.00091
 976.96;   44.930;    4.240;11406.940; 0.01287; 0.00105
 977.51;   -9.170;  -29.860;11398.840; 0.00657; 0.00054
 978.07;  -20.870;  -31.760;11290.240; 0.00348; 0.00028
 978.62;   28.230;    1.440;11281.240; 0.00862; 0.00070
 979.17;  391.130;  273.840;11228.340; 0.03787; 0.00310
 979.73;  -15.770;  -36.360;11150.440; 0.00671; 0.00055
 980.28;   29.930;    6.440;11178.640; 0.00767; 0.00063
 980.84;   26.730;    7.040;11049.840; 0.00648; 0.00053
 981.39;  -18.970;  -30.960;11067.040; 0.00397; 0.00033
 981.94;   13.830;    4.640;10985.940; 0.00306; 0.00025
 982.50;   25.630;  -14.560;10875.540; 0.01349; 0.00111
 983.05;   20.030;   -3.160;10793.640; 0.00784; 0.00064
 983.60;   82.830;   45.340;10866.340; 0.01271; 0.00105
 984.16;   26.030;   18.140;10723.040; 0.00271; 0.00022
 984.71;   29.930;    0.140;10737.640; 0.01026; 0.00084
 985.27;   -2.270;  -30.160;10610.940; 0.00973; 0.00080
 985.82;   34.830;    5.540;10600.940; 0.01026; 0.00085
 986.37;   47.330;   20.340;10579.940; 0.00955; 0.00079
 986.93;   29.030;   -7.560;10493.140; 0.01302; 0.00107
 987.48;  -26.470;  -38.060;10429.940; 0.00415; 0.00034
 988.03;    9.130;  -12.360;10433.640; 0.00775; 0.00064
 988.59;   -6.970;  -21.760;10379.140; 0.00535; 0.00044
 989.14;   30.130;   -6.160;10316.040; 0.01334; 0.00110
 989.69;   -7.370;  -20.160;10319.540; 0.00473; 0.00039
 990.24;    5.230;  -22.960;10192.540; 0.01053; 0.00087
 990.80;  -30.270;  -35.660;10144.240; 0.00203; 0.00017
 991.35;  -39.670;  -51.160;10015.240; 0.00436; 0.00036
 991.90;    7.730;    1.340;10114.540; 0.00243; 0.00020
 992.46;   -1.070;  -37.460;10020.740; 0.01403; 0.00116
 993.01;  -31.570;  -36.260; 9927.640; 0.00182; 0.00015
 993.56;  206.230;  119.940; 9917.940; 0.03384; 0.00281
 994.11;   22.730;  -11.460; 9840.440; 0.01353; 0.00112
 994.67;  -10.870;  -21.260; 9785.640; 0.00415; 0.00034
 995.22;  -10.770;  -30.460; 9703.340; 0.00793; 0.00066
 995.77;   -7.570;  -38.960; 9635.340; 0.01275; 0.00106
 996.33;   19.030;   -4.560; 9637.840; 0.00966; 0.00080
 996.88;    3.130;  -27.760; 9517.540; 0.01272; 0.00106
 997.43;  -28.870;  -28.760; 9472.340;-0.00005; 0.00000
 997.98;   35.830;    3.140; 9370.640; 0.01380; 0.00115
 998.53;   31.630;   21.740; 9336.240; 0.00422; 0.00035
 999.09;    5.130;  -30.660; 9233.940; 0.01543; 0.00129
 999.64;  -23.470;  -51.060; 9121.140; 0.01201; 0.00100
1000.19;  -19.570;  -44.160; 9086.640; 0.01081; 0.00090
1000.74;  -30.770;  -57.060; 9052.540; 0.01171; 0.00098
1001.30;  -14.970;  -19.160; 8993.240; 0.00188; 0.00016
1001.85;  -12.470;  -25.660; 8888.440; 0.00600; 0.00050
1002.40;  -30.570;  -49.260; 8808.140; 0.00863; 0.00072
1002.95;   37.630;    2.840; 8765.740; 0.01624; 0.00136
1003.50;   40.730;   15.340; 8714.040; 0.01207; 0.00101
1004.06;    7.530;  -28.160; 8593.740; 0.01728; 0.00145
1004.61;  181.830;  109.140; 8532.040; 0.03579; 0.00300
1005.16;  222.130;  142.040; 8522.340; 0.03990; 0.00335
1005.71;   40.330;   -2.660; 8537.740; 0.02165; 0.00182
1006.26;   -1.570;  -31.660; 8503.640; 0.01536; 0.00129
1006.81;  -41.470;  -57.860; 8549.940; 0.00842; 0.00071
1007.37;   25.030;  -12.460; 8518.340; 0.01948; 0.00164
1007.92;  -27.070;  -58.960; 8547.040; 0.01661; 0.00140
1008.47;   12.530;   -9.560; 8650.340; 0.01149; 0.00097
1009.02;   14.730;  -14.960; 8730.740; 0.01545; 0.00130
1009.57;   37.730;    5.940; 8770.540; 0.01637; 0.00138
1010.12;  -56.170;  -70.360; 8819.940; 0.00722; 0.00061
1010.67;    9.130;   -4.160; 8938.440; 0.00662; 0.00056
1011.22;   47.230;    5.640; 9023.540; 0.02027; 0.00171
1011.78;  -27.670;  -42.460; 9062.440; 0.00707; 0.00060
1012.33;  -32.770;  -45.560; 9068.940; 0.00601; 0.00051
1012.88;   73.330;   28.740; 9182.740; 0.02071; 0.00175
1013.43;    8.330;  -11.760; 9165.640; 0.00933; 0.00079
1013.98;   41.330;    6.840; 9256.140; 0.01603; 0.00136
1014.53;  -22.970;  -34.460; 9202.140; 0.00540; 0.00046
1015.08;  -32.970;  -44.660; 9159.840; 0.00556; 0.00047
1015.63;  -23.970;  -38.860; 9075.540; 0.00722; 0.00061
1016.18;  -40.470;  -49.160; 9064.740; 0.00428; 0.00036
1016.73;   29.830;    1.040; 8920.440; 0.01453; 0.00123
1017.28;  117.830;   59.040; 8837.240; 0.03024; 0.00257
1017.84;  -13.170;  -23.560; 8738.740; 0.00543; 0.00046
1018.39;    7.030;  -27.260; 8609.540; 0.01831; 0.00156
1018.94;  -15.770;  -47.760; 8503.540; 0.01737; 0.00148
1019.49;   41.130;   14.140; 8362.940; 0.01501; 0.00128
1020.04;   74.530;   26.240; 8286.340; 0.02733; 0.00233
1020.59;   -7.770;  -34.360; 8098.540; 0.01535; 0.00131
1021.14;  -13.270;  -19.960; 8089.340; 0.00392; 0.00033
1021.69;  -19.970;  -47.960; 7874.640; 0.01672; 0.00143
1022.24;  -11.670;  -27.460; 7839.140; 0.00959; 0.00082
1022.79;   33.430;   11.940; 7670.040; 0.01326; 0.00113
1023.34;   13.730;  -24.560; 7596.740; 0.02402; 0.00205
1023.89;   13.130;  -12.960; 7513.240; 0.01670; 0.00143
1024.44;    6.130;  -15.060; 7382.240; 0.01375; 0.00118
1024.99;   25.930;    0.040; 7310.940; 0.01709; 0.00146
1025.54;   73.030;   33.840; 7213.140; 0.02621; 0.00225
1026.09;  -16.670;  -34.860; 7156.540; 0.01236; 0.00106
1026.64;  -14.270;  -36.260; 7033.140; 0.01523; 0.00131
1027.19;   13.730;    6.240; 6951.540; 0.00528; 0.00045
1027.74;   -9.470;  -25.360; 6898.540; 0.01134; 0.00097
1028.29;   -8.470;  -39.360; 6785.340; 0.02252; 0.00194
1028.84;  105.430;   41.840; 6689.140; 0.04703; 0.00404
1029.39;   43.830;    3.440; 6693.440; 0.03014; 0.00259
1029.94;  -13.670;  -45.260; 6563.140; 0.02406; 0.00207
1030.48;  -21.970;  -47.960; 6489.840; 0.01999; 0.00172
1031.03;  -28.170;  -33.460; 6408.040; 0.00417; 0.00036
1031.58;    0.530;   -4.360; 6390.940; 0.00390; 0.00034
1032.13;  -26.470;  -46.760; 6251.740; 0.01647; 0.00142
1032.68;   -2.970;  -40.060; 6173.540; 0.03062; 0.00264
1033.23;   -9.170;  -40.760; 6056.340; 0.02635; 0.00228
1033.78;    4.730;  -34.060; 5982.840; 0.03293; 0.00285
1034.33;   23.530;  -18.960; 5956.340; 0.03659; 0.00316
1034.88;   65.930;   24.240; 5884.440; 0.03640; 0.00315
1035.43;  -24.270;  -43.260; 5797.040; 0.01688; 0.00146
1035.98;   11.830;  -24.560; 5726.840; 0.03284; 0.00284
1036.52;   36.330;   -7.860; 5703.140; 0.04046; 0.00350
1037.07;   25.430;   12.340; 5634.340; 0.01219; 0.00106
1037.62;   25.730;   -7.260; 5538.840; 0.03113; 0.00270
1038.17;  135.030;   72.140; 5465.440; 0.06024; 0.00523
1038.72;   -2.170;  -21.960; 5419.540; 0.01928; 0.00167
1039.27;  -13.870;  -19.060; 5313.940; 0.00515; 0.00045
1039.82;   26.430;   -9.760; 5277.140; 0.03655; 0.00318
1040.37;  -30.770;  -47.360; 5173.340; 0.01699; 0.00148
1040.91;  -13.270;  -44.660; 5135.140; 0.03263; 0.00284
1041.46;   -7.470;  -29.060; 5014.240; 0.02288; 0.00199
1042.01;  -18.770;  -49.760; 4962.740; 0.03326; 0.00290
1042.56;  -17.370;  -31.860; 4871.240; 0.01586; 0.00138
1043.11;   11.230;   -9.360; 4860.340; 0.02280; 0.00199
1043.66;   51.030;   24.240; 4779.540; 0.03019; 0.00263
1044.20;   11.730;    2.340; 4738.440; 0.01077; 0.00094
1044.75;   54.430;   14.740; 4683.040; 0.04632; 0.00404
1045.30;   68.130;   24.540; 4585.740; 0.05167; 0.00451
1045.85;   -1.770;  -25.760; 4510.240; 0.02889; 0.00252
1046.40;  -18.070;  -35.760; 4447.940; 0.02169; 0.00190
1046.94;  -26.870;  -26.260; 4426.440;-0.00076;-0.00007
1047.49;   25.630;  -23.660; 4272.140; 0.06253; 0.00547
1048.04;   76.130;   37.540; 4311.640; 0.04944; 0.00433
1048.59;  -17.770;  -42.360; 4233.240; 0.03218; 0.00282
1049.13;  150.530;   81.140; 4211.040; 0.09235; 0.00810
1049.68;  -22.270;  -49.960; 4059.940; 0.03773; 0.00331
1050.23;   26.130;   -0.060; 4062.640; 0.03604; 0.00316
1050.78;  -33.570;  -55.560; 3990.540; 0.03075; 0.00270
1051.32;  -10.370;  -29.060; 3946.840; 0.02657; 0.00233
1051.87;  291.430;  172.040; 3869.840; 0.17317; 0.01522
1052.42;   20.630;  -12.460; 3825.340; 0.04881; 0.00429
1052.97;  249.230;  152.740; 3792.340; 0.14379; 0.01265
1053.51;   -0.270;  -20.360; 3734.840; 0.03048; 0.00268
1054.06;   55.630;   16.740; 3661.740; 0.05983; 0.00527
1054.61;   14.330;    5.140; 3613.040; 0.01445; 0.00127
1055.16;  -13.670;  -44.160; 3555.440; 0.04841; 0.00427
1055.70;   18.030;  -25.860; 3441.340; 0.07158; 0.00632
1056.25;  -40.870;  -59.060; 3388.740; 0.03021; 0.00267
1056.80;  -16.170;  -37.360; 3359.040; 0.03563; 0.00315
1057.34;  -18.070;  -46.760; 3323.340; 0.04902; 0.00433
1057.89;   -5.270;  -38.760; 3294.340; 0.05806; 0.00513
1058.44;   17.530;    3.040; 3243.440; 0.02549; 0.00226
1058.98;   -6.770;  -34.660; 3181.040; 0.05009; 0.00443
1059.53;   10.230;  -18.360; 3089.840; 0.05224; 0.00463
1060.08;    9.030;  -21.560; 3095.640; 0.05691; 0.00504
1060.62;  130.330;   80.440; 3037.940; 0.09393; 0.00833
1061.17;  -14.470;  -35.060; 2981.040; 0.03945; 0.00350
1061.72;   12.230;  -17.560; 2925.640; 0.05819; 0.00516
1062.26;   38.930;    0.640; 2887.140; 0.07616; 0.00676
1062.81;   29.530;    2.640; 2868.640; 0.05463; 0.00485
1063.36;   19.730;   -3.960; 2810.640; 0.04880; 0.00434
1063.90;   29.730;    2.840; 2776.140; 0.05654; 0.00503
1064.45;   17.030;  -15.760; 2733.940; 0.07012; 0.00624
1064.99;    5.230;  -21.260; 2665.640; 0.05773; 0.00514
1065.54;   -4.870;  -27.260; 2665.140; 0.04959; 0.00442
1066.09;   21.030;    1.540; 2624.740; 0.04396; 0.00392
1066.63;   18.730;   -4.460; 2613.240; 0.05298; 0.00472
1067.18;   93.830;   50.140; 2546.940; 0.10220; 0.00912
1067.72;   17.830;   -8.860; 2507.940; 0.06338; 0.00566
1068.27;  -11.370;  -31.060; 2435.040; 0.04735; 0.00423
1068.82;   67.130;   24.740; 2427.340; 0.10379; 0.00927
1069.36;   26.530;   -1.560; 2384.540; 0.06987; 0.00624
1069.91;    4.430;  -27.160; 2395.540; 0.07939; 0.00710
1070.45;    9.330;   -9.660; 2355.540; 0.04863; 0.00435
1071.00;  -17.270;  -43.760; 2277.640; 0.06869; 0.00615
1071.54;    4.330;  -14.260; 2266.040; 0.04906; 0.00439
1072.09;   85.530;   61.540; 2286.540; 0.06436; 0.00577
1072.64;   12.530;   -2.360; 2225.240; 0.04068; 0.00365
1073.18;  128.730;   75.840; 2212.340; 0.14561; 0.01306
1073.73;  189.430;  126.340; 2142.340; 0.17685; 0.01587
1074.27;    8.830;  -35.860; 2113.340; 0.12640; 0.01135
1074.82;   59.230;    9.440; 2108.140; 0.14328; 0.01287
1075.36;   56.330;    9.140; 2087.140; 0.13805; 0.01241
1075.91;   17.630;    4.140; 2074.740; 0.04001; 0.00360
1076.45;   37.130;   13.340; 2031.240; 0.07140; 0.00642
1077.00;   30.130;  -14.560; 1990.740; 0.13608; 0.01225
1077.54;   48.030;   19.840; 2002.540; 0.08724; 0.00786
1078.09;   38.030;   22.840; 1946.540; 0.04749; 0.00428
1078.63;    4.130;  -33.660; 1925.340; 0.11985; 0.01080
1079.18;   12.530;  -25.660; 1902.340; 0.12318; 0.01111
1079.72;   46.230;    8.540; 1872.140; 0.12296; 0.01110
1080.27;   -5.270;  -28.260; 1833.740; 0.07625; 0.00688
1080.81;   14.330;  -27.660; 1806.540; 0.14098; 0.01273
1081.36;  -31.870;  -49.360; 1759.940; 0.05974; 0.00540
1081.90;   89.630;   47.640; 1773.640; 0.14523; 0.01313
1082.44;   63.430;   23.340; 1742.540; 0.14115; 0.01277
1082.99;   60.230;   14.540; 1720.040; 0.16271; 0.01473
1083.53;    6.730;  -15.760; 1669.840; 0.08137; 0.00737
1084.08;   49.230;   12.140; 1694.940; 0.13590; 0.01231
1084.62;   25.830;   11.540; 1650.140; 0.05330; 0.00483
1085.17;   32.230;   -6.960; 1644.640; 0.14681; 0.01331
1085.71;    5.730;  -16.460; 1604.940; 0.08443; 0.00766
1086.25;   37.930;   13.040; 1614.040; 0.09633; 0.00875
1086.80;   44.530;   10.940; 1558.740; 0.13240; 0.01203
1087.34;   24.730;    0.740; 1549.140; 0.09548; 0.00868
1087.89;   12.630;  -21.460; 1518.340; 0.13761; 0.01251
1088.43;   25.530;   12.440; 1515.840; 0.05353; 0.00487
1088.97;   23.830;    3.040; 1494.940; 0.08629; 0.00785
1089.52;  242.030;  167.440; 1492.140; 0.31416; 0.02861
1090.06;  129.530;   65.840; 1451.240; 0.27152; 0.02474
1090.61;   38.630;    6.040; 1435.740; 0.14164; 0.01291
1091.15;  212.130;  140.040; 1394.140; 0.31836; 0.02903
1091.69;   52.230;   17.840; 1365.740; 0.15411; 0.01406
1092.24;   37.630;    9.140; 1368.940; 0.12958; 0.01183
1092.78;   48.630;   28.540; 1337.940; 0.09316; 0.00851
1093.32;   36.730;   11.840; 1350.740; 0.11532; 0.01054
1093.87;   48.530;   16.840; 1327.440; 0.15036; 0.01375
1094.41;    5.730;  -11.260; 1272.140; 0.08166; 0.00747
1094.95;  171.930;  110.440; 1282.440; 0.29872; 0.02734
1095.50;  -11.070;  -27.860; 1250.140; 0.08343; 0.00764
1096.04;   54.430;   45.340; 1268.140; 0.04549; 0.00417
1096.58;  204.030;  134.540; 1217.440; 0.35297; 0.03235
1097.13;    0.730;  -25.860; 1182.740; 0.13666; 0.01253
1097.67;  101.530;   49.940; 1204.340; 0.26990; 0.02476
1098.21;    7.330;  -16.960; 1162.040; 0.12865; 0.01181
1098.76;    4.530;   -2.160; 1142.840; 0.03595; 0.00330
1099.30;   14.030;  -14.060; 1130.140; 0.15246; 0.01401
1099.84;   16.330;  -25.760; 1116.240; 0.23233; 0.02136
1100.38;   58.830;   25.840; 1094.240; 0.18439; 0.01696

